File: Figure 1F/data/0pulses.DTA
EXPLAIN
TAG	CV
TITLE	LABEL	Cyclic Voltammetry	Test &Identifier
DATE	LABEL	8/19/2021	Date
TIME	LABEL	17:32:37	Time
NOTES	NOTES	1	&Notes...

PSTAT	PSTAT	REF600P-40007	Potentiostat
VINIT	POTEN	0.00000E+000	F	Initial &E (V)
VLIMIT1	POTEN	8.00000E-001	F	Scan Limit &1 (V)
VLIMIT2	POTEN	-6.00000E-001	F	Scan Limit &2 (V)
VFINAL	POTEN	0.00000E+000	F	Final &E (V)
SCANRATE	QUANT	9.99998E+001	&Scan Rate (mV/s)
STEPSIZE	QUANT	1.00000E+001	St&ep Size (mV)
CYCLES	IQUANT	5	C&ycles (#)
IMODE	SELECTOR	0	I/E Range &Mode
IRANGE	QUANT	3.00000E-001	&Max Current (mA)
AREA	QUANT	2.87000E-005	Electrode &Area (cm^2)
ELECTRODETYPE	SELECTOR	0	Electrode Type
STRIPPING	TOGGLE	F	Used for Stripping
POLARITY	TOGGLE	F	Signal Polarity
CONDIT	TWOPARAM	F	1.50000E+001	0.00000E+000	Conditionin&g	Time(s)	E(V)
DELAY	TWOPARAM	T	5.00000E+000	0.00000E+000	Init. De&lay	Time(s)	Stab.(mV/s)
EQDELAY	QUANT	5.00000E+000	Equil. &Time (s)
IRCOMP	SELECTOR	0	IRCom&p
PFCOR	QUANT	5.00000E+001	PF Corr. (ohm)
SAMPLINGMODE	SELECTOR	2	Sampling &Mode
OCVCURVE	TABLE	19
	Pt	T	Vf	Vm	Ach	Over	Temp
	#	s	V vs. Ref.	V	V	bits	deg C
	0	0.258333	5.06222E-001	5.06222E-001	1.14989E-003	..........a	-327.64
	1	0.516667	5.06295E-001	5.10012E-001	1.15135E-003	..........a	-327.64
	2	0.775	5.06741E-001	5.13690E-001	1.14735E-003	..........a	-327.64
	3	1.03333	5.07978E-001	5.15625E-001	1.15555E-003	..........a	-327.64
	4	1.29167	5.10043E-001	5.16099E-001	1.13915E-003	..........a	-327.64
	5	1.55	5.12394E-001	5.16534E-001	1.14242E-003	..........a	-327.64
	6	1.80833	5.14369E-001	5.16838E-001	1.14649E-003	..........a	-327.64
	7	2.06667	5.15680E-001	5.17186E-001	1.14969E-003	..........a	-327.64
	8	2.325	5.16431E-001	5.17318E-001	1.15162E-003	..........a	-327.64
	9	2.58333	5.16841E-001	5.16916E-001	1.14395E-003	..........a	-327.64
	10	2.84167	5.17076E-001	5.18453E-001	1.14202E-003	..........a	-327.64
	11	3.1	5.17315E-001	5.20331E-001	1.14782E-003	..........a	-327.64
	12	3.35833	5.17796E-001	5.20395E-001	1.14389E-003	..........a	-327.64
	13	3.61667	5.18572E-001	5.20162E-001	1.14422E-003	..........a	-327.64
	14	3.875	5.19385E-001	5.20354E-001	1.14549E-003	..........a	-327.64
	15	4.13333	5.19967E-001	5.20842E-001	1.14502E-003	..........a	-327.64
	16	4.39167	5.20306E-001	5.21240E-001	1.15009E-003	..........a	-327.64
	17	4.65	5.20559E-001	5.21498E-001	1.15222E-003	..........a	-327.64
	18	4.90833	5.20833E-001	5.21641E-001	1.14975E-003	..........a	-327.64
EOC	QUANT	0.5208333	Open Circuit (V)
PSTATMODEL	IQUANT	7	Pstat Model
PSTATSECTION	LABEL	REF600P-40007	Pstat Section
PSTATSERIALNO	LABEL	40007	Pstat Serial Number
CTRLMODE	IQUANT	1	Control Mode
ELECTROMETER	IQUANT	0	RE=0 or CS=1
IESTAB	IQUANT	2	I/E Stability
CASPEED	IQUANT	4	Control Amp Speed
CONVENTION	IQUANT	1	Current Convention
ICHRANGE	IQUANT	2	Ich Range
ICHRANGEMODE	TOGGLE	F	Ich Auto Range
ICHOFFSETENABLE	TOGGLE	F	Ich Offset Enable
ICHOFFSET	QUANT	0	Ich Offset (V)
ICHFILTER	IQUANT	2	Ich Filter
VCHRANGE	IQUANT	2	Vch Range
VCHRANGEMODE	TOGGLE	F	Vch Auto Range
VCHOFFSETENABLE	TOGGLE	F	Vch Offset Enable
VCHOFFSET	QUANT	0	Vch Offset (V)
VCHFILTER	IQUANT	2	Vch Filter
ACHRANGE	IQUANT	2	Ach Range
ACHOFFSETENABLE	TOGGLE	F	Ach Offset Enable
ACHOFFSET	QUANT	0	Ach Offset (V)
ACHFILTER	IQUANT	1	Ach Filter
IERANGELOWERLIMIT	IQUANT	1	I/E Range Lower Limit
IERANGEMODE	TOGGLE	T	I/E AutoRange
IERANGE	IQUANT	8	I/E Range
POSFEEDENABLE	TOGGLE	F	Positive Feedback IR Comp
POSFEEDRESISTANCE	QUANT	0	Positive Feedback Resistance (ohm)
ACHSELECT	IQUANT	0	Ach Select
SENSECABLEID	IQUANT	7	Sense Cable ID
PWRCABLEID	IQUANT	7	Power Cable ID
DCCALDATE	LABEL	8/13/2021	DC Calibration Date
ACCALDATE	LABEL	8/13/2021	AC Calibration Date
THERMOSELECT	IQUANT	1	Thermo Select
FRAMEWORKVERSION	LABEL	7.8.1	Framework Version
INSTRUMENTVERSION	LABEL	4.40	Instrument Version
CURVE1	TABLE
	Pt	T	Vf	Im	Vu	Sig	Ach	IERange	Over	Temp
	#	s	V vs. Ref.	A	V	V	V	#	bits	deg C
	0	0.1	-2.30231E-004	1.30420E-007	0.00000E+000	7.45058E-009	1.13885E-003	8	..........a	-327.64
	3	0.4	2.99101E-002	5.00256E-009	0.00000E+000	3.00000E-002	1.12812E-003	6	..........a	-327.64
	6	0.7	5.99220E-002	6.09605E-009	0.00000E+000	6.00000E-002	4.71875E-005	6	..........a	-327.64
	9	1	8.98850E-002	6.89205E-009	0.00000E+000	9.00000E-002	4.39875E-005	6	..........a	-327.64
	12	1.3	1.19859E-001	7.58259E-009	0.00000E+000	1.20000E-001	4.43208E-005	6	..........a	-327.64
	15	1.6	1.49902E-001	8.18656E-009	0.00000E+000	1.50000E-001	4.58875E-005	6	..........a	-327.64
	18	1.9	1.79899E-001	8.76177E-009	0.00000E+000	1.80000E-001	3.91208E-005	6	..........a	-327.64
	21	2.2	2.09900E-001	9.26448E-009	0.00000E+000	2.10000E-001	4.03875E-005	6	..........a	-327.64
	24	2.5	2.39908E-001	9.77956E-009	0.00000E+000	2.40000E-001	4.48541E-005	6	..........a	-327.64
	27	2.8	2.69860E-001	1.02722E-008	0.00000E+000	2.70000E-001	3.85875E-005	6	..........a	-327.64
	30	3.1	2.99915E-001	1.07578E-008	0.00000E+000	3.00000E-001	4.04875E-005	6	..........a	-327.64
	33	3.4	3.29892E-001	1.12794E-008	0.00000E+000	3.30000E-001	3.94541E-005	6	..........a	-327.64
	36	3.7	3.59864E-001	1.17720E-008	0.00000E+000	3.60000E-001	4.02541E-005	6	..........a	-327.64
	39	4	3.89905E-001	1.22613E-008	0.00000E+000	3.90000E-001	5.01541E-005	6	..........a	-327.64
	42	4.3	4.19991E-001	1.27408E-008	0.00000E+000	4.20000E-001	4.03208E-005	6	..........a	-327.64
	45	4.6	4.49949E-001	1.32378E-008	0.00000E+000	4.50000E-001	4.43541E-005	6	..........a	-327.64
	48	4.9	4.79941E-001	1.37051E-008	0.00000E+000	4.80000E-001	4.56541E-005	6	..........a	-327.64
	51	5.2	5.09951E-001	1.42298E-008	0.00000E+000	5.10000E-001	4.31541E-005	6	..........a	-327.64
	54	5.5	5.39965E-001	1.48383E-008	0.00000E+000	5.40000E-001	4.38208E-005	6	..........a	-327.64
	57	5.8	5.69961E-001	1.57836E-008	0.00000E+000	5.70000E-001	5.08875E-005	6	..........a	-327.64
	60	6.1	5.99970E-001	1.71287E-008	0.00000E+000	6.00000E-001	4.20208E-005	6	..........a	-327.64
	63	6.4	6.29959E-001	1.88571E-008	0.00000E+000	6.30000E-001	3.45875E-005	6	..........a	-327.64
	66	6.7	6.59965E-001	2.08468E-008	0.00000E+000	6.60000E-001	3.69541E-005	6	..........a	-327.64
	69	7	6.89950E-001	2.30002E-008	0.00000E+000	6.90000E-001	3.45208E-005	6	..........a	-327.64
	72	7.3	7.19923E-001	2.53325E-008	0.00000E+000	7.20000E-001	3.37875E-005	6	..........a	-327.64
	75	7.6	7.49956E-001	2.78099E-008	0.00000E+000	7.50000E-001	3.23875E-005	6	..........a	-327.64
	78	7.9	7.79975E-001	3.05463E-008	0.00000E+000	7.80000E-001	3.65541E-005	6	..........a	-327.64
	81	8.2	7.89979E-001	1.59615E-008	0.00000E+000	7.90000E-001	3.21875E-005	6	..........a	-327.64
	84	8.5	7.60036E-001	4.88223E-009	0.00000E+000	7.60000E-001	3.88541E-005	6	..........a	-327.64
	87	8.8	7.29968E-001	-1.93480E-011	0.00000E+000	7.30000E-001	3.78875E-005	6	..........a	-327.64
	90	9.1	7.00029E-001	-2.72218E-009	0.00000E+000	7.00000E-001	4.40875E-005	6	..........a	-327.64
	93	9.4	6.69986E-001	-4.44868E-009	0.00000E+000	6.70000E-001	3.75875E-005	6	..........a	-327.64
	96	9.7	6.39971E-001	-5.62346E-009	0.00000E+000	6.40000E-001	4.78875E-005	6	..........a	-327.64
	99	10	6.10003E-001	-6.50956E-009	0.00000E+000	6.10000E-001	3.94875E-005	6	..........a	-327.64
	102	10.3	5.80014E-001	-7.24604E-009	0.00000E+000	5.80000E-001	4.15875E-005	6	..........a	-327.64
	105	10.6	5.50006E-001	-7.82734E-009	0.00000E+000	5.50000E-001	4.03541E-005	6	..........a	-327.64
	108	10.9	5.19988E-001	-8.30995E-009	0.00000E+000	5.20000E-001	4.15875E-005	6	..........a	-327.64
	111	11.2	4.90001E-001	-8.77926E-009	0.00000E+000	4.90000E-001	4.41208E-005	6	..........a	-327.64
	114	11.5	4.60013E-001	-9.07628E-009	0.00000E+000	4.60000E-001	4.39208E-005	6	..........a	-327.64
	117	11.8	4.29982E-001	-9.39250E-009	0.00000E+000	4.30000E-001	4.32541E-005	6	..........a	-327.64
	120	12.1	3.99911E-001	-9.61633E-009	0.00000E+000	4.00000E-001	3.88875E-005	6	..........a	-327.64
	123	12.4	3.69942E-001	-9.83403E-009	0.00000E+000	3.70000E-001	4.17541E-005	6	..........a	-327.64
	126	12.7	3.39959E-001	-9.98041E-009	0.00000E+000	3.40000E-001	4.36541E-005	6	..........a	-327.64
	129	13	3.09923E-001	-1.01435E-008	0.00000E+000	3.10000E-001	4.75208E-005	6	..........a	-327.64
	132	13.3	2.79919E-001	-1.02608E-008	0.00000E+000	2.80000E-001	4.20875E-005	6	..........a	-327.64
	135	13.6	2.49948E-001	-1.03398E-008	0.00000E+000	2.50000E-001	4.27875E-005	6	..........a	-327.64
	138	13.9	2.19946E-001	-1.04420E-008	0.00000E+000	2.20000E-001	4.23208E-005	6	..........a	-327.64
	141	14.2	1.89957E-001	-1.04918E-008	0.00000E+000	1.90000E-001	4.45541E-005	6	..........a	-327.64
	144	14.5	1.59925E-001	-1.05728E-008	0.00000E+000	1.60000E-001	3.83875E-005	6	..........a	-327.64
	147	14.8	1.29937E-001	-1.06464E-008	0.00000E+000	1.30000E-001	4.14208E-005	6	..........a	-327.64
	150	15.1	9.99436E-002	-1.07056E-008	0.00000E+000	1.00000E-001	3.49875E-005	6	..........a	-327.64
	153	15.4	6.99246E-002	-1.08678E-008	0.00000E+000	7.00000E-002	4.14541E-005	6	..........a	-327.64
	156	15.7	3.98859E-002	-1.09843E-008	0.00000E+000	4.00000E-002	4.64875E-005	6	..........a	-327.64
	159	16	9.94566E-003	-1.11344E-008	0.00000E+000	1.00000E-002	3.98541E-005	6	..........a	-327.64
	162	16.3	-2.01661E-002	-1.13960E-008	0.00000E+000	-2.00000E-002	3.93875E-005	6	..........a	-327.64
	165	16.6	-5.02134E-002	-1.17155E-008	0.00000E+000	-5.00000E-002	3.98541E-005	6	..........a	-327.64
	168	16.9	-8.02273E-002	-1.21163E-008	0.00000E+000	-8.00000E-002	3.68208E-005	6	..........a	-327.64
	171	17.2	-1.10155E-001	-1.26550E-008	0.00000E+000	-1.10000E-001	4.27541E-005	6	..........a	-327.64
	174	17.5	-1.40235E-001	-1.32726E-008	0.00000E+000	-1.40000E-001	3.84541E-005	6	..........a	-327.64
	177	17.8	-1.70164E-001	-1.40940E-008	0.00000E+000	-1.70000E-001	3.86541E-005	6	..........a	-327.64
	180	18.1	-2.00205E-001	-1.50528E-008	0.00000E+000	-2.00000E-001	4.50541E-005	6	..........a	-327.64
	183	18.4	-2.30211E-001	-1.60944E-008	0.00000E+000	-2.30000E-001	4.01208E-005	6	..........a	-327.64
	186	18.7	-2.60177E-001	-1.73359E-008	0.00000E+000	-2.60000E-001	4.07875E-005	6	..........a	-327.64
	189	19	-2.90155E-001	-1.88519E-008	0.00000E+000	-2.90000E-001	3.79208E-005	6	..........a	-327.64
	192	19.3	-3.20177E-001	-2.05472E-008	0.00000E+000	-3.20000E-001	4.18208E-005	6	..........a	-327.64
	195	19.6	-3.50188E-001	-2.25290E-008	0.00000E+000	-3.50000E-001	4.29875E-005	6	..........a	-327.64
	198	19.9	-3.80180E-001	-2.49069E-008	0.00000E+000	-3.80000E-001	3.99541E-005	6	..........a	-327.64
	201	20.2	-4.10252E-001	-2.76542E-008	0.00000E+000	-4.10000E-001	4.45875E-005	6	..........a	-327.64
	204	20.5	-4.40278E-001	-3.07995E-008	0.00000E+000	-4.40000E-001	4.59541E-005	6	..........a	-327.64
	207	20.8	-4.70245E-001	-3.45088E-008	0.00000E+000	-4.70000E-001	3.98541E-005	6	..........a	-327.64
	210	21.1	-5.00223E-001	-3.86380E-008	0.00000E+000	-5.00000E-001	4.46208E-005	6	..........a	-327.64
	213	21.4	-5.30210E-001	-4.30693E-008	0.00000E+000	-5.30000E-001	3.91208E-005	6	..........a	-327.64
	216	21.7	-5.60263E-001	-4.78162E-008	0.00000E+000	-5.60000E-001	4.38541E-005	6	..........a	-327.64
	219	22	-5.90248E-001	-5.27873E-008	0.00000E+000	-5.90000E-001	4.61541E-005	6	..........a	-327.64
	220	22.1	-6.00295E-001	-5.45321E-008	0.00000E+000	-6.00000E-001	3.55541E-005	6	..........a	-327.64
CURVE2	TABLE
	Pt	T	Vf	Im	Vu	Sig	Ach	IERange	Over	Temp
	#	s	V vs. Ref.	A	V	V	V	#	bits	deg C
	221	22.2	-5.90294E-001	-4.16929E-008	0.00000E+000	-5.90000E-001	4.33541E-005	6	..........a	-327.64
	224	22.5	-5.60310E-001	-3.24905E-008	0.00000E+000	-5.60000E-001	3.92208E-005	6	..........a	-327.64
	227	22.8	-5.30269E-001	-2.57534E-008	0.00000E+000	-5.30000E-001	3.32208E-005	6	..........a	-327.64
	230	23.1	-5.00274E-001	-1.96973E-008	0.00000E+000	-5.00000E-001	3.69541E-005	6	..........a	-327.64
	233	23.4	-4.70295E-001	-1.42775E-008	0.00000E+000	-4.70000E-001	4.04208E-005	6	..........a	-327.64
	236	23.7	-4.40328E-001	-9.76528E-009	0.00000E+000	-4.40000E-001	3.81541E-005	6	..........a	-327.64
	239	24	-4.10303E-001	-6.19623E-009	0.00000E+000	-4.10000E-001	3.69875E-005	6	..........a	-327.64
	242	24.3	-3.80231E-001	-3.41531E-009	0.00000E+000	-3.80000E-001	3.84208E-005	6	..........a	-327.64
	245	24.6	-3.50232E-001	-1.11404E-009	0.00000E+000	-3.50000E-001	3.93875E-005	6	..........a	-327.64
	248	24.9	-3.20219E-001	7.62815E-010	0.00000E+000	-3.20000E-001	4.17875E-005	6	..........a	-327.64
	251	25.2	-2.90189E-001	2.45151E-009	0.00000E+000	-2.90000E-001	4.04208E-005	6	..........a	-327.64
	254	25.5	-2.60215E-001	4.09269E-009	0.00000E+000	-2.60000E-001	3.73541E-005	6	..........a	-327.64
	257	25.8	-2.30248E-001	5.63385E-009	0.00000E+000	-2.30000E-001	4.36541E-005	6	..........a	-327.64
	260	26.1	-2.00244E-001	7.15629E-009	0.00000E+000	-2.00000E-001	3.86208E-005	6	..........a	-327.64
	263	26.4	-1.70200E-001	8.60012E-009	0.00000E+000	-1.70000E-001	4.60541E-005	6	..........a	-327.64
	266	26.7	-1.40278E-001	9.88426E-009	0.00000E+000	-1.40000E-001	3.63541E-005	6	..........a	-327.64
	269	27	-1.10191E-001	1.10686E-008	0.00000E+000	-1.10000E-001	4.10208E-005	6	..........a	-327.64
	272	27.3	-8.02680E-002	1.22684E-008	0.00000E+000	-8.00000E-002	4.38208E-005	6	..........a	-327.64
	275	27.6	-5.02453E-002	1.32862E-008	0.00000E+000	-5.00000E-002	3.80208E-005	6	..........a	-327.64
	278	27.9	-2.02033E-002	1.42707E-008	0.00000E+000	-2.00000E-002	4.05875E-005	6	..........a	-327.64
	281	28.2	9.91232E-003	1.51518E-008	0.00000E+000	1.00000E-002	4.29875E-005	6	..........a	-327.64
	284	28.5	3.98407E-002	1.60197E-008	0.00000E+000	4.00000E-002	4.11875E-005	6	..........a	-327.64
	287	28.8	6.98906E-002	1.68462E-008	0.00000E+000	7.00000E-002	3.69875E-005	6	..........a	-327.64
	290	29.1	9.99054E-002	1.76530E-008	0.00000E+000	1.00000E-001	4.10208E-005	6	..........a	-327.64
	293	29.4	1.29897E-001	1.83739E-008	0.00000E+000	1.30000E-001	3.76208E-005	6	..........a	-327.64
	296	29.7	1.59878E-001	1.90969E-008	0.00000E+000	1.60000E-001	3.96208E-005	6	..........a	-327.64
	299	30	1.89911E-001	1.97676E-008	0.00000E+000	1.90000E-001	3.64208E-005	6	..........a	-327.64
	302	30.3	2.19892E-001	2.03548E-008	0.00000E+000	2.20000E-001	3.96875E-005	6	..........a	-327.64
	305	30.6	2.49912E-001	2.08582E-008	0.00000E+000	2.50000E-001	3.69541E-005	6	..........a	-327.64
	308	30.9	2.79873E-001	2.13245E-008	0.00000E+000	2.80000E-001	4.43208E-005	6	..........a	-327.64
	311	31.2	3.09883E-001	2.17008E-008	0.00000E+000	3.10000E-001	4.25541E-005	6	..........a	-327.64
	314	31.5	3.39915E-001	2.20620E-008	0.00000E+000	3.40000E-001	3.90208E-005	6	..........a	-327.64
	317	31.8	3.69907E-001	2.23482E-008	0.00000E+000	3.70000E-001	4.40541E-005	6	..........a	-327.64
	320	32.1	3.99863E-001	2.26091E-008	0.00000E+000	4.00000E-001	3.51875E-005	6	..........a	-327.64
	323	32.4	4.29945E-001	2.29172E-008	0.00000E+000	4.30000E-001	4.00541E-005	6	..........a	-327.64
	326	32.7	4.59974E-001	2.32035E-008	0.00000E+000	4.60000E-001	3.75208E-005	6	..........a	-327.64
	329	33	4.89962E-001	2.34957E-008	0.00000E+000	4.90000E-001	4.01875E-005	6	..........a	-327.64
	332	33.3	5.19948E-001	2.38607E-008	0.00000E+000	5.20000E-001	3.93541E-005	6	..........a	-327.64
	335	33.6	5.49971E-001	2.43168E-008	0.00000E+000	5.50000E-001	3.48875E-005	6	..........a	-327.64
	338	33.9	5.79983E-001	2.47063E-008	0.00000E+000	5.80000E-001	3.80875E-005	6	..........a	-327.64
	341	34.2	6.09958E-001	2.52499E-008	0.00000E+000	6.10000E-001	4.14541E-005	6	..........a	-327.64
	344	34.5	6.39930E-001	2.59274E-008	0.00000E+000	6.40000E-001	4.02541E-005	6	..........a	-327.64
	347	34.8	6.69949E-001	2.67809E-008	0.00000E+000	6.70000E-001	3.67208E-005	6	..........a	-327.64
	350	35.1	6.99990E-001	2.79156E-008	0.00000E+000	7.00000E-001	3.79541E-005	6	..........a	-327.64
	353	35.4	7.29934E-001	2.95117E-008	0.00000E+000	7.30000E-001	3.58875E-005	6	..........a	-327.64
	356	35.7	7.59993E-001	3.15070E-008	0.00000E+000	7.60000E-001	4.11208E-005	6	..........a	-327.64
	359	36	7.89943E-001	3.42022E-008	0.00000E+000	7.90000E-001	4.05875E-005	6	..........a	-327.64
	362	36.3	7.80015E-001	1.14547E-008	0.00000E+000	7.80000E-001	3.79875E-005	6	..........a	-327.64
	365	36.6	7.49996E-001	2.67701E-009	0.00000E+000	7.50000E-001	4.10208E-005	6	..........a	-327.64
	368	36.9	7.19965E-001	-1.64459E-009	0.00000E+000	7.20000E-001	3.74541E-005	6	..........a	-327.64
	371	37.2	6.89992E-001	-3.88132E-009	0.00000E+000	6.90000E-001	4.29208E-005	6	..........a	-327.64
	374	37.5	6.60017E-001	-5.47212E-009	0.00000E+000	6.60000E-001	4.00875E-005	6	..........a	-327.64
	377	37.8	6.29994E-001	-6.62789E-009	0.00000E+000	6.30000E-001	3.97875E-005	6	..........a	-327.64
	380	38.1	6.00003E-001	-7.50498E-009	0.00000E+000	6.00000E-001	3.79208E-005	6	..........a	-327.64
	383	38.4	5.69994E-001	-8.15874E-009	0.00000E+000	5.70000E-001	4.27208E-005	6	..........a	-327.64
	386	38.7	5.40004E-001	-8.82460E-009	0.00000E+000	5.40000E-001	4.12875E-005	6	..........a	-327.64
	389	39	5.09988E-001	-9.41604E-009	0.00000E+000	5.10000E-001	3.97541E-005	6	..........a	-327.64
	392	39.3	4.79977E-001	-9.90929E-009	0.00000E+000	4.80000E-001	4.28875E-005	6	..........a	-327.64
	395	39.6	4.49983E-001	-1.03334E-008	0.00000E+000	4.50000E-001	4.35208E-005	6	..........a	-327.64
	398	39.9	4.20024E-001	-1.07141E-008	0.00000E+000	4.20000E-001	3.76541E-005	6	..........a	-327.64
	401	40.2	3.89936E-001	-1.10220E-008	0.00000E+000	3.90000E-001	3.78208E-005	6	..........a	-327.64
	404	40.5	3.59899E-001	-1.13214E-008	0.00000E+000	3.60000E-001	3.68875E-005	6	..........a	-327.64
[...]
	1271	127.2	8.99317E-002	-1.85986E-008	0.00000E+000	9.00000E-002	3.26875E-005	6	..........a	-327.64
	1274	127.5	5.99700E-002	-1.89963E-008	0.00000E+000	6.00000E-002	3.99541E-005	6	..........a	-327.64
	1277	127.8	2.99577E-002	-1.94585E-008	0.00000E+000	3.00000E-002	3.40541E-005	6	..........a	-327.64
	1280	128.1	-1.92532E-004	-1.97980E-008	0.00000E+000	7.45058E-009	3.64875E-005	6	..........a	-327.64
	1283	128.4	-3.01867E-002	-2.01899E-008	0.00000E+000	-3.00000E-002	3.36208E-005	6	..........a	-327.64
	1286	128.7	-6.01680E-002	-2.06811E-008	0.00000E+000	-6.00000E-002	3.00208E-005	6	..........a	-327.64
	1289	129	-9.01650E-002	-2.13038E-008	0.00000E+000	-9.00000E-002	2.97875E-005	6	..........a	-327.64
	1292	129.3	-1.20161E-001	-2.20111E-008	0.00000E+000	-1.20000E-001	2.80541E-005	6	..........a	-327.64
	1295	129.6	-1.50178E-001	-2.29406E-008	0.00000E+000	-1.50000E-001	3.10541E-005	6	..........a	-327.64
	1298	129.9	-1.80164E-001	-2.40333E-008	0.00000E+000	-1.80000E-001	2.96208E-005	6	..........a	-327.64
	1301	130.2	-2.10166E-001	-2.52687E-008	0.00000E+000	-2.10000E-001	3.33541E-005	6	..........a	-327.64
	1304	130.5	-2.40230E-001	-2.66337E-008	0.00000E+000	-2.40000E-001	3.36875E-005	6	..........a	-327.64
	1307	130.8	-2.70149E-001	-2.81158E-008	0.00000E+000	-2.70000E-001	2.93875E-005	6	..........a	-327.64
	1310	131.1	-3.00154E-001	-2.96905E-008	0.00000E+000	-3.00000E-001	2.81875E-005	6	..........a	-327.64
	1313	131.4	-3.30180E-001	-3.14228E-008	0.00000E+000	-3.30000E-001	3.16208E-005	6	..........a	-327.64
	1316	131.7	-3.60190E-001	-3.32554E-008	0.00000E+000	-3.60000E-001	3.10875E-005	6	..........a	-327.64
	1319	132	-3.90194E-001	-3.53347E-008	0.00000E+000	-3.90000E-001	2.79875E-005	6	..........a	-327.64
	1322	132.3	-4.20256E-001	-3.76531E-008	0.00000E+000	-4.20000E-001	3.83541E-005	6	..........a	-327.64
	1325	132.6	-4.50219E-001	-4.01505E-008	0.00000E+000	-4.50000E-001	3.37208E-005	6	..........a	-327.64
	1328	132.9	-4.80241E-001	-4.28608E-008	0.00000E+000	-4.80000E-001	4.12875E-005	6	..........a	-327.64
	1331	133.2	-5.10256E-001	-4.57214E-008	0.00000E+000	-5.10000E-001	4.27208E-005	6	..........a	-327.64
	1334	133.5	-5.40232E-001	-4.86930E-008	0.00000E+000	-5.40000E-001	3.81875E-005	6	..........a	-327.64
	1337	133.8	-5.70201E-001	-5.19903E-008	0.00000E+000	-5.70000E-001	3.88541E-005	6	..........a	-327.64
	1340	134.1	-6.00296E-001	-5.57864E-008	0.00000E+000	-6.00000E-001	1.12875E-003	6	..........a	-327.64
CURVE6	TABLE
	Pt	T	Vf	Im	Vu	Sig	Ach	IERange	Over	Temp
	#	s	V vs. Ref.	A	V	V	V	#	bits	deg C
	1341	134.2	-5.90292E-001	-3.86771E-008	0.00000E+000	-5.90000E-001	4.12208E-005	6	..........a	-327.64
	1342	134.3	-5.80248E-001	-3.51186E-008	0.00000E+000	-5.80000E-001	4.04541E-005	6	..........a	-327.64
	1343	134.4	-5.70256E-001	-3.24429E-008	0.00000E+000	-5.70000E-001	3.23875E-005	6	..........a	-327.64
	1344	134.5	-5.60310E-001	-3.00475E-008	0.00000E+000	-5.60000E-001	2.87208E-005	6	..........a	-327.64
	1345	134.6	-5.50319E-001	-2.78276E-008	0.00000E+000	-5.50000E-001	3.05541E-005	6	..........a	-327.64
	1346	134.7	-5.40290E-001	-2.56880E-008	0.00000E+000	-5.40000E-001	3.09875E-005	6	..........a	-327.64
	1347	134.8	-5.30268E-001	-2.35353E-008	0.00000E+000	-5.30000E-001	3.02875E-005	6	..........a	-327.64
	1348	134.9	-5.20263E-001	-2.12627E-008	0.00000E+000	-5.20000E-001	3.44208E-005	6	..........a	-327.64
	1349	135	-5.10321E-001	-1.91426E-008	0.00000E+000	-5.10000E-001	3.35208E-005	6	..........a	-327.64
	1350	135.1	-5.00279E-001	-1.69190E-008	0.00000E+000	-5.00000E-001	3.45208E-005	6	..........a	-327.64
	1351	135.2	-4.90308E-001	-1.46352E-008	0.00000E+000	-4.90000E-001	3.07875E-005	6	..........a	-327.64
	1352	135.3	-4.80306E-001	-1.25518E-008	0.00000E+000	-4.80000E-001	3.10875E-005	6	..........a	-327.64
	1353	135.4	-4.70294E-001	-1.04927E-008	0.00000E+000	-4.70000E-001	3.61875E-005	6	..........a	-327.64
	1354	135.5	-4.60300E-001	-8.48107E-009	0.00000E+000	-4.60000E-001	3.82541E-005	6	..........a	-327.64
	1355	135.6	-4.50282E-001	-6.60478E-009	0.00000E+000	-4.50000E-001	2.82541E-005	6	..........a	-327.64
	1356	135.7	-4.40329E-001	-4.93563E-009	0.00000E+000	-4.40000E-001	3.67541E-005	6	..........a	-327.64
	1357	135.8	-4.30294E-001	-3.36263E-009	0.00000E+000	-4.30000E-001	3.26208E-005	6	..........a	-327.64
	1358	135.9	-4.20322E-001	-2.00473E-009	0.00000E+000	-4.20000E-001	3.57875E-005	6	..........a	-327.64
	1359	136	-4.10298E-001	-7.98810E-010	0.00000E+000	-4.10000E-001	3.58208E-005	6	..........a	-327.64
	1360	136.1	-4.00237E-001	2.57133E-010	0.00000E+000	-4.00000E-001	3.44208E-005	6	..........a	-327.64
	1361	136.2	-3.90252E-001	1.17624E-009	0.00000E+000	-3.90000E-001	3.61875E-005	6	..........a	-327.64
	1362	136.3	-3.80219E-001	1.94193E-009	0.00000E+000	-3.80000E-001	3.38875E-005	6	..........a	-327.64
	1363	136.4	-3.70261E-001	2.71502E-009	0.00000E+000	-3.70000E-001	2.81541E-005	6	..........a	-327.64
	1364	136.5	-3.60245E-001	3.30323E-009	0.00000E+000	-3.60000E-001	3.39208E-005	6	..........a	-327.64
	1365	136.6	-3.50221E-001	3.88107E-009	0.00000E+000	-3.50000E-001	3.47541E-005	6	..........a	-327.64
	1366	136.7	-3.40222E-001	4.42566E-009	0.00000E+000	-3.40000E-001	3.32541E-005	6	..........a	-327.64
	1367	136.8	-3.30225E-001	4.81971E-009	0.00000E+000	-3.30000E-001	3.53208E-005	6	..........a	-327.64
	1368	136.9	-3.20208E-001	5.20612E-009	0.00000E+000	-3.20000E-001	3.88541E-005	6	..........a	-327.64
	1369	137	-3.10221E-001	5.47013E-009	0.00000E+000	-3.10000E-001	3.76208E-005	6	..........a	-327.64
	1370	137.1	-3.00195E-001	5.87052E-009	0.00000E+000	-3.00000E-001	3.47875E-005	6	..........a	-327.64
	1371	137.2	-2.90180E-001	6.26437E-009	0.00000E+000	-2.90000E-001	3.78208E-005	6	..........a	-327.64
	1372	137.3	-2.80243E-001	6.59523E-009	0.00000E+000	-2.80000E-001	3.44541E-005	6	..........a	-327.64
	1373	137.4	-2.70193E-001	7.11328E-009	0.00000E+000	-2.70000E-001	3.47208E-005	6	..........a	-327.64
	1374	137.5	-2.60200E-001	7.56518E-009	0.00000E+000	-2.60000E-001	3.73541E-005	6	..........a	-327.64
	1375	137.6	-2.50214E-001	8.11238E-009	0.00000E+000	-2.50000E-001	3.51875E-005	6	..........a	-327.64
	1376	137.7	-2.40277E-001	8.67167E-009	0.00000E+000	-2.40000E-001	3.54875E-005	6	..........a	-327.64
	1377	137.8	-2.30233E-001	9.25061E-009	0.00000E+000	-2.30000E-001	3.79875E-005	6	..........a	-327.64
	1378	137.9	-2.20182E-001	9.80654E-009	0.00000E+000	-2.20000E-001	3.52208E-005	6	..........a	-327.64
	1379	138	-2.10211E-001	1.04135E-008	0.00000E+000	-2.10000E-001	3.55208E-005	6	..........a	-327.64
	1380	138.1	-2.00237E-001	1.09857E-008	0.00000E+000	-2.00000E-001	3.48875E-005	6	..........a	-327.64
	1381	138.2	-1.90256E-001	1.15854E-008	0.00000E+000	-1.90000E-001	3.54208E-005	6	..........a	-327.64
	1382	138.3	-1.80214E-001	1.21640E-008	0.00000E+000	-1.80000E-001	3.64875E-005	6	..........a	-327.64
	1383	138.4	-1.70193E-001	1.27021E-008	0.00000E+000	-1.70000E-001	3.68208E-005	6	..........a	-327.64
	1384	138.5	-1.60244E-001	1.32771E-008	0.00000E+000	-1.60000E-001	3.49875E-005	6	..........a	-327.64
	1385	138.6	-1.50220E-001	1.38523E-008	0.00000E+000	-1.50000E-001	3.55541E-005	6	..........a	-327.64
	1386	138.7	-1.40258E-001	1.43712E-008	0.00000E+000	-1.40000E-001	3.52541E-005	6	..........a	-327.64
	1387	138.8	-1.30216E-001	1.48800E-008	0.00000E+000	-1.30000E-001	3.34875E-005	6	..........a	-327.64
	1388	138.9	-1.20205E-001	1.54044E-008	0.00000E+000	-1.20000E-001	3.52541E-005	6	..........a	-327.64
	1389	139	-1.10185E-001	1.58992E-008	0.00000E+000	-1.10000E-001	3.54208E-005	6	..........a	-327.64
	1390	139.1	-1.00227E-001	1.64416E-008	0.00000E+000	-1.00000E-001	3.07875E-005	6	..........a	-327.64
	1391	139.2	-9.02035E-002	1.68713E-008	0.00000E+000	-9.00000E-002	2.39541E-005	6	..........a	-327.64
	1392	139.3	-8.02532E-002	1.74006E-008	0.00000E+000	-8.00000E-002	3.10541E-005	6	..........a	-327.64
	1393	139.4	-7.01953E-002	1.78894E-008	0.00000E+000	-7.00000E-002	2.93541E-005	6	..........a	-327.64
	1394	139.5	-6.02115E-002	1.83448E-008	0.00000E+000	-6.00000E-002	3.23208E-005	6	..........a	-327.64
	1395	139.6	-5.02293E-002	1.88158E-008	0.00000E+000	-5.00000E-002	2.90541E-005	6	..........a	-327.64
	1396	139.7	-4.02133E-002	1.92712E-008	0.00000E+000	-4.00000E-002	3.16541E-005	6	..........a	-327.64
	1397	139.8	-3.02237E-002	1.97073E-008	0.00000E+000	-3.00000E-002	3.38875E-005	6	..........a	-327.64
	1398	139.9	-2.01912E-002	2.01735E-008	0.00000E+000	-2.00000E-002	3.14875E-005	6	..........a	-327.64
	1399	140	-1.02142E-002	2.06117E-008	0.00000E+000	-1.00000E-002	2.92541E-005	6	..........a	-327.64
	1400	140.1	-2.36556E-004	2.10485E-008	0.00000E+000	7.45058E-009	2.85875E-005	6	..........a	-327.64