File: Figure 1F/data/10M.DTA
EXPLAIN
TAG	CV
TITLE	LABEL	Cyclic Voltammetry	Test &Identifier
DATE	LABEL	8/24/2021	Date
TIME	LABEL	10:00:25	Time
NOTES	NOTES	1	&Notes...

PSTAT	PSTAT	REF600P-40007	Potentiostat
VINIT	POTEN	0.00000E+000	F	Initial &E (V)
VLIMIT1	POTEN	8.00000E-001	F	Scan Limit &1 (V)
VLIMIT2	POTEN	-6.00000E-001	F	Scan Limit &2 (V)
VFINAL	POTEN	0.00000E+000	F	Final &E (V)
SCANRATE	QUANT	9.99998E+001	&Scan Rate (mV/s)
STEPSIZE	QUANT	1.00000E+001	St&ep Size (mV)
CYCLES	IQUANT	5	C&ycles (#)
IMODE	SELECTOR	0	I/E Range &Mode
IRANGE	QUANT	3.00000E-001	&Max Current (mA)
AREA	QUANT	2.87000E-005	Electrode &Area (cm^2)
ELECTRODETYPE	SELECTOR	0	Electrode Type
STRIPPING	TOGGLE	F	Used for Stripping
POLARITY	TOGGLE	F	Signal Polarity
CONDIT	TWOPARAM	F	1.50000E+001	0.00000E+000	Conditionin&g	Time(s)	E(V)
DELAY	TWOPARAM	T	5.00000E+000	0.00000E+000	Init. De&lay	Time(s)	Stab.(mV/s)
EQDELAY	QUANT	5.00000E+000	Equil. &Time (s)
IRCOMP	SELECTOR	0	IRCom&p
PFCOR	QUANT	5.00000E+001	PF Corr. (ohm)
SAMPLINGMODE	SELECTOR	2	Sampling &Mode
OCVCURVE	TABLE	19
	Pt	T	Vf	Vm	Ach	Over	Temp
	#	s	V vs. Ref.	V	V	bits	deg C
	0	0.258333	1.19377E-001	1.19377E-001	1.15334E-003	..........a	-327.65
	1	0.516667	1.19380E-001	1.19545E-001	1.15287E-003	..........a	-327.65
	2	0.775	1.19402E-001	1.19812E-001	1.15647E-003	..........a	-327.65
	3	1.03333	1.19470E-001	1.20073E-001	1.15907E-003	..........a	-327.65
	4	1.29167	1.19607E-001	1.20356E-001	1.16027E-003	..........a	-327.65
	5	1.55	1.19809E-001	1.20610E-001	1.15814E-003	..........a	-327.65
	6	1.80833	1.20054E-001	1.20854E-001	1.16734E-003	..........a	-327.65
	7	2.06667	1.20316E-001	1.21084E-001	1.16520E-003	..........a	-327.65
	8	2.325	1.20575E-001	1.21323E-001	1.16687E-003	..........a	-327.65
	9	2.58333	1.20826E-001	1.21549E-001	1.15514E-003	..........a	-327.65
	10	2.84167	1.21067E-001	1.21808E-001	1.16194E-003	..........a	-327.65
	11	3.1	1.21305E-001	1.22064E-001	1.15700E-003	..........a	-327.65
	12	3.35833	1.21545E-001	1.22297E-001	1.15654E-003	..........a	-327.65
	13	3.61667	1.21789E-001	1.22530E-001	1.15680E-003	..........a	-327.65
	14	3.875	1.22034E-001	1.22775E-001	1.15794E-003	..........a	-327.65
	15	4.13333	1.22276E-001	1.23018E-001	1.16087E-003	..........a	-327.65
	16	4.39167	1.22517E-001	1.23256E-001	1.15494E-003	..........a	-327.65
	17	4.65	1.22757E-001	1.23495E-001	1.15587E-003	..........a	-327.65
	18	4.90833	1.22998E-001	1.23749E-001	1.16760E-003	..........a	-327.65
EOC	QUANT	0.1229976	Open Circuit (V)
PSTATMODEL	IQUANT	7	Pstat Model
PSTATSECTION	LABEL	REF600P-40007	Pstat Section
PSTATSERIALNO	LABEL	40007	Pstat Serial Number
CTRLMODE	IQUANT	1	Control Mode
ELECTROMETER	IQUANT	0	RE=0 or CS=1
IESTAB	IQUANT	2	I/E Stability
CASPEED	IQUANT	4	Control Amp Speed
CONVENTION	IQUANT	1	Current Convention
ICHRANGE	IQUANT	2	Ich Range
ICHRANGEMODE	TOGGLE	F	Ich Auto Range
ICHOFFSETENABLE	TOGGLE	F	Ich Offset Enable
ICHOFFSET	QUANT	0	Ich Offset (V)
ICHFILTER	IQUANT	2	Ich Filter
VCHRANGE	IQUANT	2	Vch Range
VCHRANGEMODE	TOGGLE	F	Vch Auto Range
VCHOFFSETENABLE	TOGGLE	F	Vch Offset Enable
VCHOFFSET	QUANT	0	Vch Offset (V)
VCHFILTER	IQUANT	2	Vch Filter
ACHRANGE	IQUANT	2	Ach Range
ACHOFFSETENABLE	TOGGLE	F	Ach Offset Enable
ACHOFFSET	QUANT	0	Ach Offset (V)
ACHFILTER	IQUANT	1	Ach Filter
IERANGELOWERLIMIT	IQUANT	1	I/E Range Lower Limit
IERANGEMODE	TOGGLE	T	I/E AutoRange
IERANGE	IQUANT	8	I/E Range
POSFEEDENABLE	TOGGLE	F	Positive Feedback IR Comp
POSFEEDRESISTANCE	QUANT	0	Positive Feedback Resistance (ohm)
ACHSELECT	IQUANT	0	Ach Select
SENSECABLEID	IQUANT	7	Sense Cable ID
PWRCABLEID	IQUANT	7	Power Cable ID
DCCALDATE	LABEL	8/21/2021	DC Calibration Date
ACCALDATE	LABEL	8/21/2021	AC Calibration Date
THERMOSELECT	IQUANT	1	Thermo Select
FRAMEWORKVERSION	LABEL	7.8.1	Framework Version
INSTRUMENTVERSION	LABEL	4.40	Instrument Version
CURVE1	TABLE
	Pt	T	Vf	Im	Vu	Sig	Ach	IERange	Over	Temp
	#	s	V vs. Ref.	A	V	V	V	#	bits	deg C
	0	0.1	8.61228E-005	1.67927E-007	0.00000E+000	7.45058E-009	1.13887E-003	8	..........a	-327.65
	3	0.4	3.00924E-002	1.05584E-008	0.00000E+000	3.00000E-002	1.14410E-003	6	..........a	-327.65
	6	0.7	6.01093E-002	1.29269E-008	0.00000E+000	6.00000E-002	4.02702E-005	6	..........a	-327.65
	9	1	9.00307E-002	1.51284E-008	0.00000E+000	9.00000E-002	4.20368E-005	6	..........a	-327.65
	12	1.3	1.20068E-001	1.72916E-008	0.00000E+000	1.20000E-001	4.96369E-005	6	..........a	-327.65
	15	1.6	1.50085E-001	1.94971E-008	0.00000E+000	1.50000E-001	4.48035E-005	6	..........a	-327.65
	18	1.9	1.80079E-001	2.18304E-008	0.00000E+000	1.80000E-001	5.07702E-005	6	..........a	-327.65
	21	2.2	2.10075E-001	2.42363E-008	0.00000E+000	2.10000E-001	4.71368E-005	6	..........a	-327.65
	24	2.5	2.40092E-001	2.64915E-008	0.00000E+000	2.40000E-001	4.13368E-005	6	..........a	-327.65
	27	2.8	2.70029E-001	2.83894E-008	0.00000E+000	2.70000E-001	4.49368E-005	6	..........a	-327.65
	30	3.1	3.00116E-001	2.97361E-008	0.00000E+000	3.00000E-001	4.13035E-005	6	..........a	-327.65
	33	3.4	3.30069E-001	3.05169E-008	0.00000E+000	3.30000E-001	4.15702E-005	6	..........a	-327.65
	36	3.7	3.60056E-001	3.07741E-008	0.00000E+000	3.60000E-001	4.64368E-005	6	..........a	-327.65
	39	4	3.90082E-001	3.05866E-008	0.00000E+000	3.90000E-001	4.13702E-005	6	..........a	-327.65
	42	4.3	4.20148E-001	3.02334E-008	0.00000E+000	4.20000E-001	4.47702E-005	6	..........a	-327.65
	45	4.6	4.50125E-001	2.98689E-008	0.00000E+000	4.50000E-001	4.13702E-005	6	..........a	-327.65
	48	4.9	4.80121E-001	2.95789E-008	0.00000E+000	4.80000E-001	3.84702E-005	6	..........a	-327.65
	51	5.2	5.10121E-001	2.94174E-008	0.00000E+000	5.10000E-001	4.59035E-005	6	..........a	-327.65
	54	5.5	5.40144E-001	2.94263E-008	0.00000E+000	5.40000E-001	4.28035E-005	6	..........a	-327.65
	57	5.8	5.70153E-001	2.95038E-008	0.00000E+000	5.70000E-001	4.47035E-005	6	..........a	-327.65
	60	6.1	6.00144E-001	2.97104E-008	0.00000E+000	6.00000E-001	4.29035E-005	6	..........a	-327.65
	63	6.4	6.30125E-001	3.00450E-008	0.00000E+000	6.30000E-001	4.74702E-005	6	..........a	-327.65
	66	6.7	6.60136E-001	3.06377E-008	0.00000E+000	6.60000E-001	4.48035E-005	6	..........a	-327.65
	69	7	6.90138E-001	3.16524E-008	0.00000E+000	6.90000E-001	4.40035E-005	6	..........a	-327.65
	72	7.3	7.20110E-001	3.30793E-008	0.00000E+000	7.20000E-001	4.86368E-005	6	..........a	-327.65
	75	7.6	7.50131E-001	3.52831E-008	0.00000E+000	7.50000E-001	5.03368E-005	6	..........a	-327.65
	78	7.9	7.80150E-001	3.84934E-008	0.00000E+000	7.80000E-001	4.51035E-005	6	..........a	-327.65
	81	8.2	7.90166E-001	1.11304E-008	0.00000E+000	7.90000E-001	4.01035E-005	6	..........a	-327.65
	84	8.5	7.60187E-001	-9.15221E-010	0.00000E+000	7.60000E-001	4.89035E-005	6	..........a	-327.65
	87	8.8	7.30112E-001	-5.91202E-009	0.00000E+000	7.30000E-001	5.02702E-005	6	..........a	-327.65
	90	9.1	7.00209E-001	-8.57444E-009	0.00000E+000	7.00000E-001	4.91368E-005	6	..........a	-327.65
	93	9.4	6.70169E-001	-1.02502E-008	0.00000E+000	6.70000E-001	4.73035E-005	6	..........a	-327.65
	96	9.7	6.40155E-001	-1.13647E-008	0.00000E+000	6.40000E-001	4.37369E-005	6	..........a	-327.65
	99	10	6.10186E-001	-1.21072E-008	0.00000E+000	6.10000E-001	4.89368E-005	6	..........a	-327.65
	102	10.3	5.80241E-001	-1.27130E-008	0.00000E+000	5.80000E-001	4.59702E-005	6	..........a	-327.65
	105	10.6	5.50200E-001	-1.31658E-008	0.00000E+000	5.50000E-001	4.71368E-005	6	..........a	-327.65
	108	10.9	5.20174E-001	-1.35609E-008	0.00000E+000	5.20000E-001	4.45368E-005	6	..........a	-327.65
	111	11.2	4.90194E-001	-1.39000E-008	0.00000E+000	4.90000E-001	4.51702E-005	6	..........a	-327.65
	114	11.5	4.60213E-001	-1.41771E-008	0.00000E+000	4.60000E-001	5.13702E-005	6	..........a	-327.65
	117	11.8	4.30159E-001	-1.44123E-008	0.00000E+000	4.30000E-001	4.65702E-005	6	..........a	-327.65
	120	12.1	4.00154E-001	-1.46276E-008	0.00000E+000	4.00000E-001	4.97368E-005	6	..........a	-327.65
	123	12.4	3.70136E-001	-1.48177E-008	0.00000E+000	3.70000E-001	5.03035E-005	6	..........a	-327.65
	126	12.7	3.40139E-001	-1.49949E-008	0.00000E+000	3.40000E-001	4.77035E-005	6	..........a	-327.65
	129	13	3.10109E-001	-1.52004E-008	0.00000E+000	3.10000E-001	5.03035E-005	6	..........a	-327.65
	132	13.3	2.80115E-001	-1.54514E-008	0.00000E+000	2.80000E-001	5.05702E-005	6	..........a	-327.65
	135	13.6	2.50136E-001	-1.58071E-008	0.00000E+000	2.50000E-001	4.13702E-005	6	..........a	-327.65
	138	13.9	2.20158E-001	-1.62301E-008	0.00000E+000	2.20000E-001	5.20368E-005	6	..........a	-327.65
	141	14.2	1.90139E-001	-1.68517E-008	0.00000E+000	1.90000E-001	5.37702E-005	6	..........a	-327.65
	144	14.5	1.60120E-001	-1.75244E-008	0.00000E+000	1.60000E-001	5.21368E-005	6	..........a	-327.65
	147	14.8	1.30116E-001	-1.83282E-008	0.00000E+000	1.30000E-001	4.82368E-005	6	..........a	-327.65
	150	15.1	1.00145E-001	-1.92311E-008	0.00000E+000	1.00000E-001	5.02035E-005	6	..........a	-327.65
	153	15.4	7.01087E-002	-2.01411E-008	0.00000E+000	7.00000E-002	4.86035E-005	6	..........a	-327.65
	156	15.7	4.01168E-002	-2.11279E-008	0.00000E+000	4.00000E-002	5.35702E-005	6	..........a	-327.65
	159	16	1.01451E-002	-2.21811E-008	0.00000E+000	1.00000E-002	4.78368E-005	6	..........a	-327.65
	162	16.3	-1.99520E-002	-2.34050E-008	0.00000E+000	-2.00000E-002	4.89035E-005	6	..........a	-327.65
	165	16.6	-5.00265E-002	-2.48286E-008	0.00000E+000	-5.00000E-002	4.27368E-005	6	..........a	-327.65
	168	16.9	-7.99751E-002	-2.65933E-008	0.00000E+000	-8.00000E-002	4.51702E-005	6	..........a	-327.65
	171	17.2	-1.10002E-001	-2.87647E-008	0.00000E+000	-1.10000E-001	4.41702E-005	6	..........a	-327.65
	174	17.5	-1.39980E-001	-3.14242E-008	0.00000E+000	-1.40000E-001	3.77702E-005	6	..........a	-327.65
	177	17.8	-1.69972E-001	-3.45677E-008	0.00000E+000	-1.70000E-001	4.27702E-005	6	..........a	-327.65
	180	18.1	-1.99985E-001	-3.81327E-008	0.00000E+000	-2.00000E-001	4.24702E-005	6	..........a	-327.65
	183	18.4	-2.30011E-001	-4.20355E-008	0.00000E+000	-2.30000E-001	4.90035E-005	6	..........a	-327.65
	186	18.7	-2.59937E-001	-4.60776E-008	0.00000E+000	-2.60000E-001	4.73035E-005	6	..........a	-327.65
	189	19	-2.89974E-001	-5.03093E-008	0.00000E+000	-2.90000E-001	4.81035E-005	6	..........a	-327.65
	192	19.3	-3.19941E-001	-5.49349E-008	0.00000E+000	-3.20000E-001	5.58035E-005	6	..........a	-327.65
	195	19.6	-3.49995E-001	-6.01755E-008	0.00000E+000	-3.50000E-001	5.55035E-005	6	..........a	-327.65
	198	19.9	-3.79961E-001	-6.67698E-008	0.00000E+000	-3.80000E-001	4.97368E-005	6	..........a	-327.65
	201	20.2	-4.10069E-001	-7.50524E-008	0.00000E+000	-4.10000E-001	5.45368E-005	6	..........a	-327.65
	204	20.5	-4.40050E-001	-8.49532E-008	0.00000E+000	-4.40000E-001	4.93702E-005	6	..........a	-327.65
	207	20.8	-4.70063E-001	-9.55662E-008	0.00000E+000	-4.70000E-001	5.42368E-005	6	..........a	-327.65
	210	21.1	-5.00049E-001	-1.05763E-007	0.00000E+000	-5.00000E-001	5.74368E-005	6	..........a	-327.65
	213	21.4	-5.30044E-001	-1.14098E-007	0.00000E+000	-5.30000E-001	5.84369E-005	6	..........a	-327.65
	216	21.7	-5.60048E-001	-1.19558E-007	0.00000E+000	-5.60000E-001	5.47702E-005	6	..........a	-327.65
	219	22	-5.90078E-001	-1.21513E-007	0.00000E+000	-5.90000E-001	4.99368E-005	6	..........a	-327.65
	220	22.1	-6.00070E-001	-1.21444E-007	0.00000E+000	-6.00000E-001	1.14634E-003	6	..........a	-327.65
CURVE2	TABLE
	Pt	T	Vf	Im	Vu	Sig	Ach	IERange	Over	Temp
	#	s	V vs. Ref.	A	V	V	V	#	bits	deg C
	221	22.2	-5.90123E-001	-8.09209E-008	0.00000E+000	-5.90000E-001	5.56702E-005	6	..........a	-327.65
	224	22.5	-5.60093E-001	-4.60926E-008	0.00000E+000	-5.60000E-001	6.47035E-005	6	..........a	-327.65
	227	22.8	-5.30092E-001	-3.00033E-008	0.00000E+000	-5.30000E-001	5.51369E-005	6	..........a	-327.65
	230	23.1	-5.00097E-001	-2.11585E-008	0.00000E+000	-5.00000E-001	4.34035E-005	6	..........a	-327.65
	233	23.4	-4.70125E-001	-1.59613E-008	0.00000E+000	-4.70000E-001	4.86035E-005	6	..........a	-327.65
	236	23.7	-4.40098E-001	-1.25912E-008	0.00000E+000	-4.40000E-001	4.66369E-005	6	..........a	-327.65
	239	24	-4.10120E-001	-9.93217E-009	0.00000E+000	-4.10000E-001	4.75702E-005	6	..........a	-327.65
	242	24.3	-3.80009E-001	-7.59448E-009	0.00000E+000	-3.80000E-001	5.52035E-005	6	..........a	-327.65
	245	24.6	-3.50041E-001	-5.17404E-009	0.00000E+000	-3.50000E-001	5.25035E-005	6	..........a	-327.65
	248	24.9	-3.20004E-001	-2.62029E-009	0.00000E+000	-3.20000E-001	5.19702E-005	6	..........a	-327.65
	251	25.2	-2.90049E-001	7.01352E-011	0.00000E+000	-2.90000E-001	5.00035E-005	6	..........a	-327.65
	254	25.5	-2.60004E-001	2.77230E-009	0.00000E+000	-2.60000E-001	5.17035E-005	6	..........a	-327.65
	257	25.8	-2.30070E-001	5.38500E-009	0.00000E+000	-2.30000E-001	4.97035E-005	6	..........a	-327.65
	260	26.1	-2.00036E-001	7.89063E-009	0.00000E+000	-2.00000E-001	5.61035E-005	6	..........a	-327.65
	263	26.4	-1.70024E-001	1.02752E-008	0.00000E+000	-1.70000E-001	4.88369E-005	6	..........a	-327.65
	266	26.7	-1.40041E-001	1.26427E-008	0.00000E+000	-1.40000E-001	5.45368E-005	6	..........a	-327.65
	269	27	-1.10044E-001	1.50129E-008	0.00000E+000	-1.10000E-001	4.91368E-005	6	..........a	-327.65
	272	27.3	-8.00232E-002	1.74274E-008	0.00000E+000	-8.00000E-002	5.26702E-005	6	..........a	-327.65
	275	27.6	-5.00691E-002	1.99739E-008	0.00000E+000	-5.00000E-002	5.26702E-005	6	..........a	-327.65
	278	27.9	-2.00035E-002	2.26392E-008	0.00000E+000	-2.00000E-002	4.04702E-005	6	..........a	-327.65
	281	28.2	1.01000E-002	2.55672E-008	0.00000E+000	1.00000E-002	4.42368E-005	6	..........a	-327.65
	284	28.5	4.00634E-002	2.88554E-008	0.00000E+000	4.00000E-002	4.24368E-005	6	..........a	-327.65
	287	28.8	7.00639E-002	3.24641E-008	0.00000E+000	7.00000E-002	4.67702E-005	6	..........a	-327.65
	290	29.1	1.00089E-001	3.64452E-008	0.00000E+000	1.00000E-001	4.74035E-005	6	..........a	-327.65
	293	29.4	1.30079E-001	4.07337E-008	0.00000E+000	1.30000E-001	4.87035E-005	6	..........a	-327.65
	296	29.7	1.60078E-001	4.52122E-008	0.00000E+000	1.60000E-001	4.54368E-005	6	..........a	-327.65
	299	30	1.90094E-001	4.95719E-008	0.00000E+000	1.90000E-001	5.58368E-005	6	..........a	-327.65
	302	30.3	2.20117E-001	5.37388E-008	0.00000E+000	2.20000E-001	5.33035E-005	6	..........a	-327.65
	305	30.6	2.50098E-001	5.73973E-008	0.00000E+000	2.50000E-001	5.27035E-005	6	..........a	-327.65
	308	30.9	2.80070E-001	6.03728E-008	0.00000E+000	2.80000E-001	4.77702E-005	6	..........a	-327.65
	311	31.2	3.10064E-001	6.24174E-008	0.00000E+000	3.10000E-001	4.49035E-005	6	..........a	-327.65
	314	31.5	3.40091E-001	6.34488E-008	0.00000E+000	3.40000E-001	4.28035E-005	6	..........a	-327.65
	317	31.8	3.70085E-001	6.33353E-008	0.00000E+000	3.70000E-001	4.77702E-005	6	..........a	-327.65
	320	32.1	4.00107E-001	6.22977E-008	0.00000E+000	4.00000E-001	4.75369E-005	6	..........a	-327.65
	323	32.4	4.30117E-001	6.07088E-008	0.00000E+000	4.30000E-001	5.09702E-005	6	..........a	-327.65
	326	32.7	4.60166E-001	5.90059E-008	0.00000E+000	4.60000E-001	4.49035E-005	6	..........a	-327.65
	329	33	4.90156E-001	5.74669E-008	0.00000E+000	4.90000E-001	5.08368E-005	6	..........a	-327.65
	332	33.3	5.20130E-001	5.62470E-008	0.00000E+000	5.20000E-001	4.82035E-005	6	..........a	-327.65
	335	33.6	5.50152E-001	5.53699E-008	0.00000E+000	5.50000E-001	4.92035E-005	6	..........a	-327.65
	338	33.9	5.80189E-001	5.47793E-008	0.00000E+000	5.80000E-001	4.65035E-005	6	..........a	-327.65
	341	34.2	6.10148E-001	5.45348E-008	0.00000E+000	6.10000E-001	4.40035E-005	6	..........a	-327.65
	344	34.5	6.40113E-001	5.45733E-008	0.00000E+000	6.40000E-001	4.38035E-005	6	..........a	-327.65
	347	34.8	6.70128E-001	5.49239E-008	0.00000E+000	6.70000E-001	4.61035E-005	6	..........a	-327.65
	350	35.1	7.00170E-001	5.56723E-008	0.00000E+000	7.00000E-001	4.83035E-005	6	..........a	-327.65
	353	35.4	7.30079E-001	5.68451E-008	0.00000E+000	7.30000E-001	4.77369E-005	6	..........a	-327.65
	356	35.7	7.60147E-001	5.87144E-008	0.00000E+000	7.60000E-001	4.72702E-005	6	..........a	-327.65
	359	36	7.90129E-001	6.12662E-008	0.00000E+000	7.90000E-001	5.04368E-005	6	..........a	-327.65
	362	36.3	7.80194E-001	1.79769E-008	0.00000E+000	7.80000E-001	4.44035E-005	6	..........a	-327.65
	365	36.6	7.50179E-001	3.90423E-009	0.00000E+000	7.50000E-001	4.17702E-005	6	..........a	-327.65
	368	36.9	7.20159E-001	-2.96302E-009	0.00000E+000	7.20000E-001	4.98035E-005	6	..........a	-327.65
	371	37.2	6.90176E-001	-6.92969E-009	0.00000E+000	6.90000E-001	5.88368E-005	6	..........a	-327.65
	374	37.5	6.60185E-001	-9.48357E-009	0.00000E+000	6.60000E-001	4.85035E-005	6	..........a	-327.65
	377	37.8	6.30175E-001	-1.12238E-008	0.00000E+000	6.30000E-001	5.23035E-005	6	..........a	-327.65
	380	38.1	6.00188E-001	-1.28287E-008	0.00000E+000	6.00000E-001	5.32035E-005	6	..........a	-327.65
	383	38.4	5.70197E-001	-1.35627E-008	0.00000E+000	5.70000E-001	5.60035E-005	6	..........a	-327.65
	386	38.7	5.40200E-001	-1.44324E-008	0.00000E+000	5.40000E-001	5.05369E-005	6	..........a	-327.65
	389	39	5.10173E-001	-1.50293E-008	0.00000E+000	5.10000E-001	4.92035E-005	6	..........a	-327.65
	392	39.3	4.80169E-001	-1.57042E-008	0.00000E+000	4.80000E-001	5.07702E-005	6	..........a	-327.65
	395	39.6	4.50145E-001	-1.63111E-008	0.00000E+000	4.50000E-001	5.38035E-005	6	..........a	-327.65
	398	39.9	4.20197E-001	-1.67275E-008	0.00000E+000	4.20000E-001	4.81702E-005	6	..........a	-327.65
	401	40.2	3.90119E-001	-1.70369E-008	0.00000E+000	3.90000E-001	4.57368E-005	6	..........a	-327.65
	404	40.5	3.60099E-001	-1.73085E-008	0.00000E+000	3.60000E-001	4.87702E-005	6	..........a	-327.65
[...]
	1271	127.2	9.00786E-002	-2.42189E-008	0.00000E+000	9.00000E-002	4.72035E-005	6	..........a	-327.65
	1274	127.5	6.01542E-002	-2.54268E-008	0.00000E+000	6.00000E-002	4.85035E-005	6	..........a	-327.65
	1277	127.8	3.01298E-002	-2.66947E-008	0.00000E+000	3.00000E-002	4.81368E-005	6	..........a	-327.65
	1280	128.1	1.00460E-004	-2.80459E-008	0.00000E+000	7.45058E-009	4.82702E-005	6	..........a	-327.65
	1283	128.4	-3.00228E-002	-2.95034E-008	0.00000E+000	-3.00000E-002	5.27368E-005	6	..........a	-327.65
	1286	128.7	-5.99641E-002	-3.10885E-008	0.00000E+000	-6.00000E-002	5.04702E-005	6	..........a	-327.65
	1289	129	-8.99952E-002	-3.29305E-008	0.00000E+000	-9.00000E-002	4.92035E-005	6	..........a	-327.65
	1292	129.3	-1.19968E-001	-3.49678E-008	0.00000E+000	-1.20000E-001	4.48368E-005	6	..........a	-327.65
	1295	129.6	-1.50007E-001	-3.72364E-008	0.00000E+000	-1.50000E-001	4.73035E-005	6	..........a	-327.65
	1298	129.9	-1.79957E-001	-3.98320E-008	0.00000E+000	-1.80000E-001	4.90702E-005	6	..........a	-327.65
	1301	130.2	-2.10000E-001	-4.26658E-008	0.00000E+000	-2.10000E-001	5.92702E-005	6	..........a	-327.65
	1304	130.5	-2.39953E-001	-4.56492E-008	0.00000E+000	-2.40000E-001	5.75035E-005	6	..........a	-327.65
	1307	130.8	-2.69956E-001	-4.88115E-008	0.00000E+000	-2.70000E-001	5.56368E-005	6	..........a	-327.65
	1310	131.1	-2.99963E-001	-5.21440E-008	0.00000E+000	-3.00000E-001	5.28368E-005	6	..........a	-327.65
	1313	131.4	-3.29991E-001	-5.57027E-008	0.00000E+000	-3.30000E-001	5.41368E-005	6	..........a	-327.65
	1316	131.7	-3.59955E-001	-5.98788E-008	0.00000E+000	-3.60000E-001	5.49035E-005	6	..........a	-327.65
	1319	132	-3.90018E-001	-6.46971E-008	0.00000E+000	-3.90000E-001	5.35035E-005	6	..........a	-327.65
	1322	132.3	-4.20048E-001	-7.02934E-008	0.00000E+000	-4.20000E-001	5.58035E-005	6	..........a	-327.65
	1325	132.6	-4.50059E-001	-7.63370E-008	0.00000E+000	-4.50000E-001	5.54702E-005	6	..........a	-327.65
	1328	132.9	-4.80038E-001	-8.21373E-008	0.00000E+000	-4.80000E-001	5.63035E-005	6	..........a	-327.65
	1331	133.2	-5.10094E-001	-8.66779E-008	0.00000E+000	-5.10000E-001	5.35702E-005	6	..........a	-327.65
	1334	133.5	-5.40036E-001	-8.96772E-008	0.00000E+000	-5.40000E-001	5.06035E-005	6	..........a	-327.65
	1337	133.8	-5.70057E-001	-9.09547E-008	0.00000E+000	-5.70000E-001	5.34368E-005	6	..........a	-327.65
	1340	134.1	-6.00072E-001	-9.12064E-008	0.00000E+000	-6.00000E-001	5.46035E-005	6	..........a	-327.65
CURVE6	TABLE
	Pt	T	Vf	Im	Vu	Sig	Ach	IERange	Over	Temp
	#	s	V vs. Ref.	A	V	V	V	#	bits	deg C
	1341	134.2	-5.90115E-001	-5.63481E-008	0.00000E+000	-5.90000E-001	6.00702E-005	6	..........a	-327.65
	1342	134.3	-5.80064E-001	-4.55748E-008	0.00000E+000	-5.80000E-001	6.06035E-005	6	..........a	-327.65
	1343	134.4	-5.70093E-001	-3.79927E-008	0.00000E+000	-5.70000E-001	6.00369E-005	6	..........a	-327.65
	1344	134.5	-5.60093E-001	-3.22851E-008	0.00000E+000	-5.60000E-001	5.28368E-005	6	..........a	-327.65
	1345	134.6	-5.50146E-001	-2.78514E-008	0.00000E+000	-5.50000E-001	5.77035E-005	6	..........a	-327.65
	1346	134.7	-5.40079E-001	-2.43296E-008	0.00000E+000	-5.40000E-001	5.40368E-005	6	..........a	-327.65
	1347	134.8	-5.30096E-001	-2.15102E-008	0.00000E+000	-5.30000E-001	4.77369E-005	6	..........a	-327.65
	1348	134.9	-5.20072E-001	-1.92253E-008	0.00000E+000	-5.20000E-001	4.11035E-005	6	..........a	-327.65
	1349	135	-5.10139E-001	-1.73613E-008	0.00000E+000	-5.10000E-001	4.47702E-005	6	..........a	-327.65
	1350	135.1	-5.00098E-001	-1.57838E-008	0.00000E+000	-5.00000E-001	5.00035E-005	6	..........a	-327.65
	1351	135.2	-4.90126E-001	-1.44517E-008	0.00000E+000	-4.90000E-001	4.81035E-005	6	..........a	-327.65
	1352	135.3	-4.80094E-001	-1.32818E-008	0.00000E+000	-4.80000E-001	5.17702E-005	6	..........a	-327.65
	1353	135.4	-4.70123E-001	-1.22341E-008	0.00000E+000	-4.70000E-001	5.16702E-005	6	..........a	-327.65
	1354	135.5	-4.60105E-001	-1.12708E-008	0.00000E+000	-4.60000E-001	5.06035E-005	6	..........a	-327.65
	1355	135.6	-4.50112E-001	-1.03769E-008	0.00000E+000	-4.50000E-001	5.12702E-005	6	..........a	-327.65
	1356	135.7	-4.40101E-001	-9.51231E-009	0.00000E+000	-4.40000E-001	5.03035E-005	6	..........a	-327.65
	1357	135.8	-4.30111E-001	-8.68324E-009	0.00000E+000	-4.30000E-001	5.03702E-005	6	..........a	-327.65
	1358	135.9	-4.20107E-001	-7.85203E-009	0.00000E+000	-4.20000E-001	5.04035E-005	6	..........a	-327.65
	1359	136	-4.10120E-001	-7.03025E-009	0.00000E+000	-4.10000E-001	5.84369E-005	6	..........a	-327.65
	1360	136.1	-4.00032E-001	-6.20638E-009	0.00000E+000	-4.00000E-001	6.08368E-005	6	..........a	-327.65
	1361	136.2	-3.90075E-001	-5.36513E-009	0.00000E+000	-3.90000E-001	5.35702E-005	6	..........a	-327.65
	1362	136.3	-3.80013E-001	-4.51251E-009	0.00000E+000	-3.80000E-001	4.62368E-005	6	..........a	-327.65
	1363	136.4	-3.70099E-001	-3.64322E-009	0.00000E+000	-3.70000E-001	5.08702E-005	6	..........a	-327.65
	1364	136.5	-3.60021E-001	-2.73352E-009	0.00000E+000	-3.60000E-001	5.10369E-005	6	..........a	-327.65
	1365	136.6	-3.50046E-001	-1.84403E-009	0.00000E+000	-3.50000E-001	5.16035E-005	6	..........a	-327.65
	1366	136.7	-3.40024E-001	-9.66669E-010	0.00000E+000	-3.40000E-001	5.37702E-005	6	..........a	-327.65
	1367	136.8	-3.30055E-001	-5.52016E-011	0.00000E+000	-3.30000E-001	5.74702E-005	6	..........a	-327.65
	1368	136.9	-3.20011E-001	8.24290E-010	0.00000E+000	-3.20000E-001	5.57368E-005	6	..........a	-327.65
	1369	137	-3.10062E-001	1.73116E-009	0.00000E+000	-3.10000E-001	5.38368E-005	6	..........a	-327.65
	1370	137.1	-3.00019E-001	2.58521E-009	0.00000E+000	-3.00000E-001	5.74035E-005	6	..........a	-327.65
	1371	137.2	-2.90055E-001	3.43039E-009	0.00000E+000	-2.90000E-001	5.75035E-005	6	..........a	-327.65
	1372	137.3	-2.80037E-001	4.26373E-009	0.00000E+000	-2.80000E-001	5.11368E-005	6	..........a	-327.65
	1373	137.4	-2.70019E-001	5.06227E-009	0.00000E+000	-2.70000E-001	5.23035E-005	6	..........a	-327.65
	1374	137.5	-2.59994E-001	5.86094E-009	0.00000E+000	-2.60000E-001	5.48368E-005	6	..........a	-327.65
	1375	137.6	-2.50046E-001	6.62523E-009	0.00000E+000	-2.50000E-001	5.27035E-005	6	..........a	-327.65
	1376	137.7	-2.40012E-001	7.37331E-009	0.00000E+000	-2.40000E-001	5.36702E-005	6	..........a	-327.65
	1377	137.8	-2.30063E-001	8.11557E-009	0.00000E+000	-2.30000E-001	5.60702E-005	6	..........a	-327.65
	1378	137.9	-2.20000E-001	8.84575E-009	0.00000E+000	-2.20000E-001	5.41368E-005	6	..........a	-327.65
	1379	138	-2.10056E-001	9.57233E-009	0.00000E+000	-2.10000E-001	5.19035E-005	6	..........a	-327.65
	1380	138.1	-2.00031E-001	1.02756E-008	0.00000E+000	-2.00000E-001	4.96702E-005	6	..........a	-327.65
	1381	138.2	-1.90097E-001	1.09820E-008	0.00000E+000	-1.90000E-001	5.38035E-005	6	..........a	-327.65
	1382	138.3	-1.80009E-001	1.16608E-008	0.00000E+000	-1.80000E-001	5.49035E-005	6	..........a	-327.65
	1383	138.4	-1.70021E-001	1.23588E-008	0.00000E+000	-1.70000E-001	5.15368E-005	6	..........a	-327.65
	1384	138.5	-1.59991E-001	1.30053E-008	0.00000E+000	-1.60000E-001	5.45702E-005	6	..........a	-327.65
	1385	138.6	-1.50047E-001	1.36906E-008	0.00000E+000	-1.50000E-001	5.52702E-005	6	..........a	-327.65
	1386	138.7	-1.40027E-001	1.43784E-008	0.00000E+000	-1.40000E-001	5.10702E-005	6	..........a	-327.65
	1387	138.8	-1.30054E-001	1.50579E-008	0.00000E+000	-1.30000E-001	4.82368E-005	6	..........a	-327.65
	1388	138.9	-1.20012E-001	1.57658E-008	0.00000E+000	-1.20000E-001	4.94368E-005	6	..........a	-327.65
	1389	139	-1.10044E-001	1.64636E-008	0.00000E+000	-1.10000E-001	4.61368E-005	6	..........a	-327.65
	1390	139.1	-1.00027E-001	1.71513E-008	0.00000E+000	-1.00000E-001	4.44368E-005	6	..........a	-327.65
	1391	139.2	-9.00367E-002	1.78913E-008	0.00000E+000	-9.00000E-002	4.33368E-005	6	..........a	-327.65
	1392	139.3	-8.00205E-002	1.86159E-008	0.00000E+000	-8.00000E-002	4.65035E-005	6	..........a	-327.65
	1393	139.4	-7.00222E-002	1.93673E-008	0.00000E+000	-7.00000E-002	4.57368E-005	6	..........a	-327.65
	1394	139.5	-6.00164E-002	2.01232E-008	0.00000E+000	-6.00000E-002	4.69702E-005	6	..........a	-327.65
	1395	139.6	-5.00624E-002	2.09378E-008	0.00000E+000	-5.00000E-002	4.75035E-005	6	..........a	-327.65
	1396	139.7	-4.00198E-002	2.17337E-008	0.00000E+000	-4.00000E-002	4.77035E-005	6	..........a	-327.65
	1397	139.8	-3.00648E-002	2.25474E-008	0.00000E+000	-3.00000E-002	4.58702E-005	6	..........a	-327.65
	1398	139.9	-1.99966E-002	2.33807E-008	0.00000E+000	-2.00000E-002	4.35702E-005	6	..........a	-327.65
	1399	140	-1.00399E-002	2.42923E-008	0.00000E+000	-1.00000E-002	3.92369E-005	6	..........a	-327.65
	1400	140.1	5.54527E-005	2.52256E-008	0.00000E+000	7.45058E-009	3.60035E-005	6	..........a	-327.65