File: Figure 1F/data/15M.DTA
EXPLAIN
TAG	CV
TITLE	LABEL	Cyclic Voltammetry	Test &Identifier
DATE	LABEL	8/24/2021	Date
TIME	LABEL	15:39:40	Time
NOTES	NOTES	1	&Notes...

PSTAT	PSTAT	REF600P-40007	Potentiostat
VINIT	POTEN	0.00000E+000	F	Initial &E (V)
VLIMIT1	POTEN	8.00000E-001	F	Scan Limit &1 (V)
VLIMIT2	POTEN	-6.00000E-001	F	Scan Limit &2 (V)
VFINAL	POTEN	0.00000E+000	F	Final &E (V)
SCANRATE	QUANT	9.99998E+001	&Scan Rate (mV/s)
STEPSIZE	QUANT	1.00000E+001	St&ep Size (mV)
CYCLES	IQUANT	5	C&ycles (#)
IMODE	SELECTOR	0	I/E Range &Mode
IRANGE	QUANT	3.00000E-001	&Max Current (mA)
AREA	QUANT	2.87000E-005	Electrode &Area (cm^2)
ELECTRODETYPE	SELECTOR	0	Electrode Type
STRIPPING	TOGGLE	F	Used for Stripping
POLARITY	TOGGLE	F	Signal Polarity
CONDIT	TWOPARAM	F	1.50000E+001	0.00000E+000	Conditionin&g	Time(s)	E(V)
DELAY	TWOPARAM	T	5.00000E+000	0.00000E+000	Init. De&lay	Time(s)	Stab.(mV/s)
EQDELAY	QUANT	5.00000E+000	Equil. &Time (s)
IRCOMP	SELECTOR	0	IRCom&p
PFCOR	QUANT	5.00000E+001	PF Corr. (ohm)
SAMPLINGMODE	SELECTOR	2	Sampling &Mode
OCVCURVE	TABLE	19
	Pt	T	Vf	Vm	Ach	Over	Temp
	#	s	V vs. Ref.	V	V	bits	deg C
	0	0.258333	1.40678E-001	1.40678E-001	1.14447E-003	..........a	-327.65
	1	0.516667	1.40680E-001	1.40750E-001	1.13700E-003	..........a	-327.65
	2	0.775	1.40688E-001	1.40810E-001	1.14300E-003	..........a	-327.65
	3	1.03333	1.40711E-001	1.40873E-001	1.14247E-003	..........a	-327.65
	4	1.29167	1.40744E-001	1.40559E-001	1.14394E-003	..........a	-327.65
	5	1.55	1.40759E-001	1.40514E-001	1.13734E-003	..........a	-327.65
	6	1.80833	1.40729E-001	1.40715E-001	1.14747E-003	..........a	-327.65
	7	2.06667	1.40680E-001	1.40931E-001	1.14247E-003	..........a	-327.65
	8	2.325	1.40679E-001	1.41198E-001	1.14807E-003	..........a	-327.65
	9	2.58333	1.40770E-001	1.41522E-001	1.14994E-003	..........a	-327.65
	10	2.84167	1.40950E-001	1.41720E-001	1.14567E-003	..........a	-327.65
	11	3.1	1.41185E-001	1.41809E-001	1.14327E-003	..........a	-327.65
	12	3.35833	1.41425E-001	1.41897E-001	1.14360E-003	..........a	-327.65
	13	3.61667	1.41628E-001	1.42029E-001	1.14614E-003	..........a	-327.65
	14	3.875	1.41783E-001	1.42093E-001	1.14960E-003	..........a	-327.65
	15	4.13333	1.41904E-001	1.42234E-001	1.14660E-003	..........a	-327.65
	16	4.39167	1.42009E-001	1.42332E-001	1.14727E-003	..........a	-327.65
	17	4.65	1.42112E-001	1.42444E-001	1.13620E-003	..........a	-327.65
	18	4.90833	1.42218E-001	1.42582E-001	1.13867E-003	..........a	-327.65
EOC	QUANT	0.1422179	Open Circuit (V)
PSTATMODEL	IQUANT	7	Pstat Model
PSTATSECTION	LABEL	REF600P-40007	Pstat Section
PSTATSERIALNO	LABEL	40007	Pstat Serial Number
CTRLMODE	IQUANT	1	Control Mode
ELECTROMETER	IQUANT	0	RE=0 or CS=1
IESTAB	IQUANT	2	I/E Stability
CASPEED	IQUANT	4	Control Amp Speed
CONVENTION	IQUANT	1	Current Convention
ICHRANGE	IQUANT	2	Ich Range
ICHRANGEMODE	TOGGLE	F	Ich Auto Range
ICHOFFSETENABLE	TOGGLE	F	Ich Offset Enable
ICHOFFSET	QUANT	0	Ich Offset (V)
ICHFILTER	IQUANT	2	Ich Filter
VCHRANGE	IQUANT	2	Vch Range
VCHRANGEMODE	TOGGLE	F	Vch Auto Range
VCHOFFSETENABLE	TOGGLE	F	Vch Offset Enable
VCHOFFSET	QUANT	0	Vch Offset (V)
VCHFILTER	IQUANT	2	Vch Filter
ACHRANGE	IQUANT	2	Ach Range
ACHOFFSETENABLE	TOGGLE	F	Ach Offset Enable
ACHOFFSET	QUANT	0	Ach Offset (V)
ACHFILTER	IQUANT	1	Ach Filter
IERANGELOWERLIMIT	IQUANT	1	I/E Range Lower Limit
IERANGEMODE	TOGGLE	T	I/E AutoRange
IERANGE	IQUANT	8	I/E Range
POSFEEDENABLE	TOGGLE	F	Positive Feedback IR Comp
POSFEEDRESISTANCE	QUANT	0	Positive Feedback Resistance (ohm)
ACHSELECT	IQUANT	0	Ach Select
SENSECABLEID	IQUANT	7	Sense Cable ID
PWRCABLEID	IQUANT	7	Power Cable ID
DCCALDATE	LABEL	8/21/2021	DC Calibration Date
ACCALDATE	LABEL	8/21/2021	AC Calibration Date
THERMOSELECT	IQUANT	1	Thermo Select
FRAMEWORKVERSION	LABEL	7.8.1	Framework Version
INSTRUMENTVERSION	LABEL	4.40	Instrument Version
CURVE1	TABLE
	Pt	T	Vf	Im	Vu	Sig	Ach	IERange	Over	Temp
	#	s	V vs. Ref.	A	V	V	V	#	bits	deg C
	0	0.1	1.05426E-004	1.24442E-007	0.00000E+000	7.45058E-009	1.13430E-003	8	..........a	-327.65
	3	0.4	3.01012E-002	9.44696E-009	0.00000E+000	3.00000E-002	1.12580E-003	6	..........a	-327.65
	6	0.7	6.01223E-002	1.14957E-008	0.00000E+000	6.00000E-002	2.80035E-005	6	..........a	-327.65
	9	1	9.00507E-002	1.32901E-008	0.00000E+000	9.00000E-002	3.24702E-005	6	..........a	-327.65
	12	1.3	1.20080E-001	1.50254E-008	0.00000E+000	1.20000E-001	3.99368E-005	6	..........a	-327.65
	15	1.6	1.50098E-001	1.66927E-008	0.00000E+000	1.50000E-001	4.24368E-005	6	..........a	-327.65
	18	1.9	1.80093E-001	1.85118E-008	0.00000E+000	1.80000E-001	3.11702E-005	6	..........a	-327.65
	21	2.2	2.10089E-001	2.05636E-008	0.00000E+000	2.10000E-001	3.08368E-005	6	..........a	-327.65
	24	2.5	2.40104E-001	2.29299E-008	0.00000E+000	2.40000E-001	3.50369E-005	6	..........a	-327.65
	27	2.8	2.70047E-001	2.54292E-008	0.00000E+000	2.70000E-001	2.84368E-005	6	..........a	-327.65
	30	3.1	3.00120E-001	2.79042E-008	0.00000E+000	3.00000E-001	3.69702E-005	6	..........a	-327.65
	33	3.4	3.30080E-001	3.02377E-008	0.00000E+000	3.30000E-001	3.81702E-005	6	..........a	-327.65
	36	3.7	3.60068E-001	3.22894E-008	0.00000E+000	3.60000E-001	2.93702E-005	6	..........a	-327.65
	39	4	3.90087E-001	3.40298E-008	0.00000E+000	3.90000E-001	3.47368E-005	6	..........a	-327.65
	42	4.3	4.20158E-001	3.55243E-008	0.00000E+000	4.20000E-001	3.64035E-005	6	..........a	-327.65
	45	4.6	4.50149E-001	3.67676E-008	0.00000E+000	4.50000E-001	3.77702E-005	6	..........a	-327.65
	48	4.9	4.80133E-001	3.79537E-008	0.00000E+000	4.80000E-001	3.74035E-005	6	..........a	-327.65
	51	5.2	5.10139E-001	3.90770E-008	0.00000E+000	5.10000E-001	3.84035E-005	6	..........a	-327.65
	54	5.5	5.40155E-001	4.02034E-008	0.00000E+000	5.40000E-001	4.08702E-005	6	..........a	-327.65
	57	5.8	5.70156E-001	4.13634E-008	0.00000E+000	5.70000E-001	3.68368E-005	6	..........a	-327.65
	60	6.1	6.00154E-001	4.25771E-008	0.00000E+000	6.00000E-001	3.22702E-005	6	..........a	-327.65
	63	6.4	6.30151E-001	4.38499E-008	0.00000E+000	6.30000E-001	3.35368E-005	6	..........a	-327.65
	66	6.7	6.60144E-001	4.52483E-008	0.00000E+000	6.60000E-001	4.00035E-005	6	..........a	-327.65
	69	7	6.90147E-001	4.69259E-008	0.00000E+000	6.90000E-001	3.53368E-005	6	..........a	-327.65
	72	7.3	7.20118E-001	4.88643E-008	0.00000E+000	7.20000E-001	4.26035E-005	6	..........a	-327.65
	75	7.6	7.50144E-001	5.13381E-008	0.00000E+000	7.50000E-001	3.86035E-005	6	..........a	-327.65
	78	7.9	7.80154E-001	5.45093E-008	0.00000E+000	7.80000E-001	3.59702E-005	6	..........a	-327.65
	81	8.2	7.90177E-001	2.38630E-008	0.00000E+000	7.90000E-001	3.67702E-005	6	..........a	-327.65
	84	8.5	7.60183E-001	6.15889E-009	0.00000E+000	7.60000E-001	4.33035E-005	6	..........a	-327.65
	87	8.8	7.30127E-001	-1.52307E-009	0.00000E+000	7.30000E-001	4.48368E-005	6	..........a	-327.65
	90	9.1	7.00218E-001	-5.83747E-009	0.00000E+000	7.00000E-001	4.58035E-005	6	..........a	-327.65
	93	9.4	6.70178E-001	-8.50899E-009	0.00000E+000	6.70000E-001	4.22369E-005	6	..........a	-327.65
	96	9.7	6.40161E-001	-1.03223E-008	0.00000E+000	6.40000E-001	4.85035E-005	6	..........a	-327.65
	99	10	6.10191E-001	-1.16264E-008	0.00000E+000	6.10000E-001	4.94368E-005	6	..........a	-327.65
	102	10.3	5.80232E-001	-1.26155E-008	0.00000E+000	5.80000E-001	4.18035E-005	6	..........a	-327.65
	105	10.6	5.50207E-001	-1.34534E-008	0.00000E+000	5.50000E-001	3.61035E-005	6	..........a	-327.65
	108	10.9	5.20177E-001	-1.40916E-008	0.00000E+000	5.20000E-001	4.29035E-005	6	..........a	-327.65
	111	11.2	4.90205E-001	-1.46422E-008	0.00000E+000	4.90000E-001	4.50368E-005	6	..........a	-327.65
	114	11.5	4.60217E-001	-1.50775E-008	0.00000E+000	4.60000E-001	4.21702E-005	6	..........a	-327.65
	117	11.8	4.30175E-001	-1.54291E-008	0.00000E+000	4.30000E-001	4.99702E-005	6	..........a	-327.65
	120	12.1	4.00159E-001	-1.56950E-008	0.00000E+000	4.00000E-001	4.77035E-005	6	..........a	-327.65
	123	12.4	3.70136E-001	-1.59214E-008	0.00000E+000	3.70000E-001	4.36368E-005	6	..........a	-327.65
	126	12.7	3.40140E-001	-1.60911E-008	0.00000E+000	3.40000E-001	4.35702E-005	6	..........a	-327.65
	129	13	3.10114E-001	-1.62731E-008	0.00000E+000	3.10000E-001	4.52368E-005	6	..........a	-327.65
	132	13.3	2.80117E-001	-1.65394E-008	0.00000E+000	2.80000E-001	4.31368E-005	6	..........a	-327.65
	135	13.6	2.50146E-001	-1.68624E-008	0.00000E+000	2.50000E-001	4.04368E-005	6	..........a	-327.65
	138	13.9	2.20158E-001	-1.73064E-008	0.00000E+000	2.20000E-001	4.21702E-005	6	..........a	-327.65
	141	14.2	1.90144E-001	-1.78804E-008	0.00000E+000	1.90000E-001	4.96369E-005	6	..........a	-327.65
	144	14.5	1.60128E-001	-1.86113E-008	0.00000E+000	1.60000E-001	5.00702E-005	6	..........a	-327.65
	147	14.8	1.30130E-001	-1.94447E-008	0.00000E+000	1.30000E-001	4.89368E-005	6	..........a	-327.65
	150	15.1	1.00143E-001	-2.03410E-008	0.00000E+000	1.00000E-001	4.34035E-005	6	..........a	-327.65
	153	15.4	7.01218E-002	-2.13004E-008	0.00000E+000	7.00000E-002	4.62035E-005	6	..........a	-327.65
	156	15.7	4.01190E-002	-2.23470E-008	0.00000E+000	4.00000E-002	4.37035E-005	6	..........a	-327.65
	159	16	1.01492E-002	-2.35099E-008	0.00000E+000	1.00000E-002	4.67035E-005	6	..........a	-327.65
	162	16.3	-1.99527E-002	-2.49032E-008	0.00000E+000	-2.00000E-002	4.83368E-005	6	..........a	-327.65
	165	16.6	-5.00179E-002	-2.63135E-008	0.00000E+000	-5.00000E-002	4.41368E-005	6	..........a	-327.65
	168	16.9	-7.99657E-002	-2.80558E-008	0.00000E+000	-8.00000E-002	5.37702E-005	6	..........a	-327.65
	171	17.2	-1.09995E-001	-3.02543E-008	0.00000E+000	-1.10000E-001	4.36035E-005	6	..........a	-327.65
	174	17.5	-1.39969E-001	-3.26641E-008	0.00000E+000	-1.40000E-001	5.32368E-005	6	..........a	-327.65
	177	17.8	-1.69965E-001	-3.57614E-008	0.00000E+000	-1.70000E-001	4.61702E-005	6	..........a	-327.65
	180	18.1	-1.99975E-001	-3.94626E-008	0.00000E+000	-2.00000E-001	4.61702E-005	6	..........a	-327.65
	183	18.4	-2.30005E-001	-4.32152E-008	0.00000E+000	-2.30000E-001	4.85035E-005	6	..........a	-327.65
	186	18.7	-2.59935E-001	-4.72398E-008	0.00000E+000	-2.60000E-001	4.95035E-005	6	..........a	-327.65
	189	19	-2.89976E-001	-5.13595E-008	0.00000E+000	-2.90000E-001	4.83368E-005	6	..........a	-327.65
	192	19.3	-3.19938E-001	-5.54326E-008	0.00000E+000	-3.20000E-001	4.92035E-005	6	..........a	-327.65
	195	19.6	-3.49984E-001	-6.01956E-008	0.00000E+000	-3.50000E-001	5.19702E-005	6	..........a	-327.65
	198	19.9	-3.79954E-001	-6.56087E-008	0.00000E+000	-3.80000E-001	5.06702E-005	6	..........a	-327.65
	201	20.2	-4.10064E-001	-7.24687E-008	0.00000E+000	-4.10000E-001	4.80368E-005	6	..........a	-327.65
	204	20.5	-4.40029E-001	-8.09488E-008	0.00000E+000	-4.40000E-001	4.87035E-005	6	..........a	-327.65
	207	20.8	-4.70058E-001	-9.06318E-008	0.00000E+000	-4.70000E-001	4.15702E-005	6	..........a	-327.65
	210	21.1	-5.00045E-001	-1.00273E-007	0.00000E+000	-5.00000E-001	5.15368E-005	6	..........a	-327.65
	213	21.4	-5.30034E-001	-1.08333E-007	0.00000E+000	-5.30000E-001	4.78368E-005	6	..........a	-327.65
	216	21.7	-5.60029E-001	-1.14319E-007	0.00000E+000	-5.60000E-001	4.94702E-005	6	..........a	-327.65
	219	22	-5.90068E-001	-1.17492E-007	0.00000E+000	-5.90000E-001	4.61035E-005	6	..........a	-327.65
	220	22.1	-6.00046E-001	-1.18015E-007	0.00000E+000	-6.00000E-001	5.10369E-005	6	..........a	-327.65
CURVE2	TABLE
	Pt	T	Vf	Im	Vu	Sig	Ach	IERange	Over	Temp
	#	s	V vs. Ref.	A	V	V	V	#	bits	deg C
	221	22.2	-5.90111E-001	-7.96003E-008	0.00000E+000	-5.90000E-001	5.37035E-005	6	..........a	-327.65
	224	22.5	-5.60077E-001	-4.69083E-008	0.00000E+000	-5.60000E-001	5.29702E-005	6	..........a	-327.65
	227	22.8	-5.30084E-001	-3.15645E-008	0.00000E+000	-5.30000E-001	4.58702E-005	6	..........a	-327.65
	230	23.1	-5.00090E-001	-2.29329E-008	0.00000E+000	-5.00000E-001	4.06368E-005	6	..........a	-327.65
	233	23.4	-4.70122E-001	-1.76004E-008	0.00000E+000	-4.70000E-001	4.25702E-005	6	..........a	-327.65
	236	23.7	-4.40080E-001	-1.39401E-008	0.00000E+000	-4.40000E-001	4.24035E-005	6	..........a	-327.65
	239	24	-4.10115E-001	-1.10027E-008	0.00000E+000	-4.10000E-001	4.79035E-005	6	..........a	-327.65
	242	24.3	-3.80011E-001	-8.42066E-009	0.00000E+000	-3.80000E-001	4.98035E-005	6	..........a	-327.65
	245	24.6	-3.50038E-001	-6.00425E-009	0.00000E+000	-3.50000E-001	4.69368E-005	6	..........a	-327.65
	248	24.9	-3.19999E-001	-3.60401E-009	0.00000E+000	-3.20000E-001	4.67702E-005	6	..........a	-327.65
	251	25.2	-2.90052E-001	-1.22788E-009	0.00000E+000	-2.90000E-001	4.41035E-005	6	..........a	-327.65
	254	25.5	-2.59989E-001	1.25478E-009	0.00000E+000	-2.60000E-001	4.22702E-005	6	..........a	-327.65
	257	25.8	-2.30056E-001	3.68626E-009	0.00000E+000	-2.30000E-001	4.15368E-005	6	..........a	-327.65
	260	26.1	-2.00024E-001	6.16493E-009	0.00000E+000	-2.00000E-001	3.84702E-005	6	..........a	-327.65
	263	26.4	-1.70015E-001	8.56173E-009	0.00000E+000	-1.70000E-001	3.98368E-005	6	..........a	-327.65
	266	26.7	-1.40020E-001	1.08836E-008	0.00000E+000	-1.40000E-001	4.51035E-005	6	..........a	-327.65
	269	27	-1.10037E-001	1.31910E-008	0.00000E+000	-1.10000E-001	4.26702E-005	6	..........a	-327.65
	272	27.3	-8.00132E-002	1.55687E-008	0.00000E+000	-8.00000E-002	4.06035E-005	6	..........a	-327.65
	275	27.6	-5.00617E-002	1.80434E-008	0.00000E+000	-5.00000E-002	4.11035E-005	6	..........a	-327.65
	278	27.9	-2.00006E-002	2.07448E-008	0.00000E+000	-2.00000E-002	3.97035E-005	6	..........a	-327.65
	281	28.2	1.01039E-002	2.36182E-008	0.00000E+000	1.00000E-002	4.11035E-005	6	..........a	-327.65
	284	28.5	4.00741E-002	2.68156E-008	0.00000E+000	4.00000E-002	3.27368E-005	6	..........a	-327.65
	287	28.8	7.00827E-002	3.05986E-008	0.00000E+000	7.00000E-002	3.67368E-005	6	..........a	-327.65
	290	29.1	1.00099E-001	3.55330E-008	0.00000E+000	1.00000E-001	3.61702E-005	6	..........a	-327.65
	293	29.4	1.30091E-001	3.86009E-008	0.00000E+000	1.30000E-001	4.33035E-005	6	..........a	-327.65
	296	29.7	1.60087E-001	4.27071E-008	0.00000E+000	1.60000E-001	4.36702E-005	6	..........a	-327.65
	299	30	1.90103E-001	4.70432E-008	0.00000E+000	1.90000E-001	4.02035E-005	6	..........a	-327.65
	302	30.3	2.20122E-001	5.13702E-008	0.00000E+000	2.20000E-001	4.38702E-005	6	..........a	-327.65
	305	30.6	2.50105E-001	5.53763E-008	0.00000E+000	2.50000E-001	4.44368E-005	6	..........a	-327.65
	308	30.9	2.80081E-001	5.88450E-008	0.00000E+000	2.80000E-001	4.83368E-005	6	..........a	-327.65
	311	31.2	3.10077E-001	6.16694E-008	0.00000E+000	3.10000E-001	4.48368E-005	6	..........a	-327.65
	314	31.5	3.40097E-001	6.35440E-008	0.00000E+000	3.40000E-001	4.59702E-005	6	..........a	-327.65
	317	31.8	3.70093E-001	6.44786E-008	0.00000E+000	3.70000E-001	4.35035E-005	6	..........a	-327.65
	320	32.1	4.00110E-001	6.45094E-008	0.00000E+000	4.00000E-001	4.49702E-005	6	..........a	-327.65
	323	32.4	4.30138E-001	6.38694E-008	0.00000E+000	4.30000E-001	3.95702E-005	6	..........a	-327.65
	326	32.7	4.60168E-001	6.29108E-008	0.00000E+000	4.60000E-001	3.75035E-005	6	..........a	-327.65
	329	33	4.90166E-001	6.19579E-008	0.00000E+000	4.90000E-001	4.34368E-005	6	..........a	-327.65
	332	33.3	5.20135E-001	6.12339E-008	0.00000E+000	5.20000E-001	3.47702E-005	6	..........a	-327.65
	335	33.6	5.50167E-001	6.07341E-008	0.00000E+000	5.50000E-001	3.84035E-005	6	..........a	-327.65
	338	33.9	5.80198E-001	6.05125E-008	0.00000E+000	5.80000E-001	3.98035E-005	6	..........a	-327.65
	341	34.2	6.10157E-001	6.05620E-008	0.00000E+000	6.10000E-001	4.03702E-005	6	..........a	-327.65
	344	34.5	6.40125E-001	6.09043E-008	0.00000E+000	6.40000E-001	4.07035E-005	6	..........a	-327.65
	347	34.8	6.70141E-001	6.15209E-008	0.00000E+000	6.70000E-001	4.67702E-005	6	..........a	-327.65
	350	35.1	7.00179E-001	6.24991E-008	0.00000E+000	7.00000E-001	4.28702E-005	6	..........a	-327.65
	353	35.4	7.30097E-001	6.39272E-008	0.00000E+000	7.30000E-001	4.10702E-005	6	..........a	-327.65
	356	35.7	7.60147E-001	6.58613E-008	0.00000E+000	7.60000E-001	4.07035E-005	6	..........a	-327.65
	359	36	7.90147E-001	6.86319E-008	0.00000E+000	7.90000E-001	4.21368E-005	6	..........a	-327.65
	362	36.3	7.80200E-001	2.35531E-008	0.00000E+000	7.80000E-001	4.35035E-005	6	..........a	-327.65
	365	36.6	7.50187E-001	7.44484E-009	0.00000E+000	7.50000E-001	4.49368E-005	6	..........a	-327.65
	368	36.9	7.20168E-001	-5.69253E-010	0.00000E+000	7.20000E-001	4.64702E-005	6	..........a	-327.65
	371	37.2	6.90192E-001	-5.25456E-009	0.00000E+000	6.90000E-001	4.65035E-005	6	..........a	-327.65
	374	37.5	6.60187E-001	-8.25558E-009	0.00000E+000	6.60000E-001	4.43702E-005	6	..........a	-327.65
	377	37.8	6.30200E-001	-1.03501E-008	0.00000E+000	6.30000E-001	4.40035E-005	6	..........a	-327.65
	380	38.1	6.00196E-001	-1.19289E-008	0.00000E+000	6.00000E-001	4.67702E-005	6	..........a	-327.65
	383	38.4	5.70201E-001	-1.31173E-008	0.00000E+000	5.70000E-001	5.03035E-005	6	..........a	-327.65
	386	38.7	5.40199E-001	-1.41209E-008	0.00000E+000	5.40000E-001	5.06368E-005	6	..........a	-327.65
	389	39	5.10188E-001	-1.49920E-008	0.00000E+000	5.10000E-001	5.01035E-005	6	..........a	-327.65
	392	39.3	4.80174E-001	-1.56578E-008	0.00000E+000	4.80000E-001	4.48368E-005	6	..........a	-327.65
	395	39.6	4.50180E-001	-1.62587E-008	0.00000E+000	4.50000E-001	5.16702E-005	6	..........a	-327.65
	398	39.9	4.20206E-001	-1.67685E-008	0.00000E+000	4.20000E-001	4.75702E-005	6	..........a	-327.65
	401	40.2	3.90137E-001	-1.71724E-008	0.00000E+000	3.90000E-001	6.17035E-005	6	..........a	-327.65
	404	40.5	3.60110E-001	-1.75078E-008	0.00000E+000	3.60000E-001	5.41702E-005	6	..........a	-327.65
[...]
	1271	127.2	9.01034E-002	-2.45239E-008	0.00000E+000	9.00000E-002	4.74035E-005	6	..........a	-327.65
	1274	127.5	6.01624E-002	-2.57307E-008	0.00000E+000	6.00000E-002	4.93702E-005	6	..........a	-327.65
	1277	127.8	3.01406E-002	-2.70183E-008	0.00000E+000	3.00000E-002	5.18702E-005	6	..........a	-327.65
	1280	128.1	1.23264E-004	-2.84547E-008	0.00000E+000	7.45058E-009	5.18702E-005	6	..........a	-327.65
	1283	128.4	-3.00086E-002	-3.00133E-008	0.00000E+000	-3.00000E-002	4.90035E-005	6	..........a	-327.65
	1286	128.7	-5.99468E-002	-3.15143E-008	0.00000E+000	-6.00000E-002	4.65368E-005	6	..........a	-327.65
	1289	129	-8.99892E-002	-3.33524E-008	0.00000E+000	-9.00000E-002	5.26702E-005	6	..........a	-327.65
	1292	129.3	-1.19956E-001	-3.55681E-008	0.00000E+000	-1.20000E-001	5.60702E-005	6	..........a	-327.65
	1295	129.6	-1.49990E-001	-3.81627E-008	0.00000E+000	-1.50000E-001	5.52368E-005	6	..........a	-327.65
	1298	129.9	-1.79952E-001	-4.10011E-008	0.00000E+000	-1.80000E-001	5.45035E-005	6	..........a	-327.65
	1301	130.2	-2.09983E-001	-4.39445E-008	0.00000E+000	-2.10000E-001	5.52702E-005	6	..........a	-327.65
	1304	130.5	-2.39920E-001	-4.70914E-008	0.00000E+000	-2.40000E-001	5.78035E-005	6	..........a	-327.65
	1307	130.8	-2.69949E-001	-5.03909E-008	0.00000E+000	-2.70000E-001	6.00369E-005	6	..........a	-327.65
	1310	131.1	-2.99958E-001	-5.38597E-008	0.00000E+000	-3.00000E-001	5.57368E-005	6	..........a	-327.65
	1313	131.4	-3.29984E-001	-5.74285E-008	0.00000E+000	-3.30000E-001	5.74368E-005	6	..........a	-327.65
	1316	131.7	-3.59948E-001	-6.15046E-008	0.00000E+000	-3.60000E-001	5.68702E-005	6	..........a	-327.65
	1319	132	-3.90006E-001	-6.62585E-008	0.00000E+000	-3.90000E-001	6.05035E-005	6	..........a	-327.65
	1322	132.3	-4.20027E-001	-7.17562E-008	0.00000E+000	-4.20000E-001	5.12035E-005	6	..........a	-327.65
	1325	132.6	-4.50060E-001	-7.76654E-008	0.00000E+000	-4.50000E-001	5.26702E-005	6	..........a	-327.65
	1328	132.9	-4.80030E-001	-8.36022E-008	0.00000E+000	-4.80000E-001	5.68368E-005	6	..........a	-327.65
	1331	133.2	-5.10084E-001	-8.87015E-008	0.00000E+000	-5.10000E-001	5.03702E-005	6	..........a	-327.65
	1334	133.5	-5.40026E-001	-9.25092E-008	0.00000E+000	-5.40000E-001	4.71702E-005	6	..........a	-327.65
	1337	133.8	-5.70038E-001	-9.48244E-008	0.00000E+000	-5.70000E-001	5.52702E-005	6	..........a	-327.65
	1340	134.1	-6.00052E-001	-9.57967E-008	0.00000E+000	-6.00000E-001	1.15414E-003	6	..........a	-327.65
CURVE6	TABLE
	Pt	T	Vf	Im	Vu	Sig	Ach	IERange	Over	Temp
	#	s	V vs. Ref.	A	V	V	V	#	bits	deg C
	1341	134.2	-5.90110E-001	-6.07986E-008	0.00000E+000	-5.90000E-001	6.23035E-005	6	..........a	-327.65
	1342	134.3	-5.80059E-001	-4.96355E-008	0.00000E+000	-5.80000E-001	6.49368E-005	6	..........a	-327.65
	1343	134.4	-5.70081E-001	-4.17172E-008	0.00000E+000	-5.70000E-001	6.06368E-005	6	..........a	-327.65
	1344	134.5	-5.60076E-001	-3.56810E-008	0.00000E+000	-5.60000E-001	5.89035E-005	6	..........a	-327.65
	1345	134.6	-5.50138E-001	-3.10015E-008	0.00000E+000	-5.50000E-001	5.65035E-005	6	..........a	-327.65
	1346	134.7	-5.40072E-001	-2.71771E-008	0.00000E+000	-5.40000E-001	4.48035E-005	6	..........a	-327.65
	1347	134.8	-5.30085E-001	-2.41102E-008	0.00000E+000	-5.30000E-001	4.92702E-005	6	..........a	-327.65
	1348	134.9	-5.20039E-001	-2.15930E-008	0.00000E+000	-5.20000E-001	4.22702E-005	6	..........a	-327.65
	1349	135	-5.10132E-001	-1.95172E-008	0.00000E+000	-5.10000E-001	4.66702E-005	6	..........a	-327.65
	1350	135.1	-5.00088E-001	-1.77441E-008	0.00000E+000	-5.00000E-001	4.68035E-005	6	..........a	-327.65
	1351	135.2	-4.90115E-001	-1.62415E-008	0.00000E+000	-4.90000E-001	4.60702E-005	6	..........a	-327.65
	1352	135.3	-4.80076E-001	-1.49324E-008	0.00000E+000	-4.80000E-001	4.66035E-005	6	..........a	-327.65
	1353	135.4	-4.70116E-001	-1.37464E-008	0.00000E+000	-4.70000E-001	4.88035E-005	6	..........a	-327.65
	1354	135.5	-4.60092E-001	-1.27193E-008	0.00000E+000	-4.60000E-001	4.32702E-005	6	..........a	-327.65
	1355	135.6	-4.50106E-001	-1.17320E-008	0.00000E+000	-4.50000E-001	4.94368E-005	6	..........a	-327.65
	1356	135.7	-4.40076E-001	-1.07833E-008	0.00000E+000	-4.40000E-001	5.41702E-005	6	..........a	-327.65
	1357	135.8	-4.30101E-001	-9.88076E-009	0.00000E+000	-4.30000E-001	5.42702E-005	6	..........a	-327.65
	1358	135.9	-4.20080E-001	-9.06311E-009	0.00000E+000	-4.20000E-001	5.35368E-005	6	..........a	-327.65
	1359	136	-4.10108E-001	-8.25071E-009	0.00000E+000	-4.10000E-001	5.40035E-005	6	..........a	-327.65
	1360	136.1	-4.00017E-001	-7.41770E-009	0.00000E+000	-4.00000E-001	5.84369E-005	6	..........a	-327.65
	1361	136.2	-3.90057E-001	-6.62603E-009	0.00000E+000	-3.90000E-001	5.11368E-005	6	..........a	-327.65
	1362	136.3	-3.80002E-001	-5.82153E-009	0.00000E+000	-3.80000E-001	5.46702E-005	6	..........a	-327.65
	1363	136.4	-3.70080E-001	-4.99995E-009	0.00000E+000	-3.70000E-001	5.82368E-005	6	..........a	-327.65
	1364	136.5	-3.60007E-001	-4.16691E-009	0.00000E+000	-3.60000E-001	5.80702E-005	6	..........a	-327.65
	1365	136.6	-3.50035E-001	-3.31476E-009	0.00000E+000	-3.50000E-001	5.34702E-005	6	..........a	-327.65
	1366	136.7	-3.40005E-001	-2.47681E-009	0.00000E+000	-3.40000E-001	5.65368E-005	6	..........a	-327.65
	1367	136.8	-3.30038E-001	-1.59199E-009	0.00000E+000	-3.30000E-001	5.20035E-005	6	..........a	-327.65
	1368	136.9	-3.19994E-001	-7.27266E-010	0.00000E+000	-3.20000E-001	5.59368E-005	6	..........a	-327.65
	1369	137	-3.10036E-001	1.42890E-010	0.00000E+000	-3.10000E-001	5.29035E-005	6	..........a	-327.65
	1370	137.1	-3.00011E-001	1.00968E-009	0.00000E+000	-3.00000E-001	5.00035E-005	6	..........a	-327.65
	1371	137.2	-2.90046E-001	1.88784E-009	0.00000E+000	-2.90000E-001	4.79035E-005	6	..........a	-327.65
	1372	137.3	-2.80017E-001	2.73585E-009	0.00000E+000	-2.80000E-001	4.76702E-005	6	..........a	-327.65
	1373	137.4	-2.70006E-001	3.57070E-009	0.00000E+000	-2.70000E-001	4.85035E-005	6	..........a	-327.65
	1374	137.5	-2.59989E-001	4.42985E-009	0.00000E+000	-2.60000E-001	4.90368E-005	6	..........a	-327.65
	1375	137.6	-2.50037E-001	5.28220E-009	0.00000E+000	-2.50000E-001	4.52702E-005	6	..........a	-327.65
	1376	137.7	-2.39985E-001	6.08437E-009	0.00000E+000	-2.40000E-001	4.92368E-005	6	..........a	-327.65
	1377	137.8	-2.30055E-001	6.86407E-009	0.00000E+000	-2.30000E-001	4.74035E-005	6	..........a	-327.65
	1378	137.9	-2.19993E-001	7.63436E-009	0.00000E+000	-2.20000E-001	4.45035E-005	6	..........a	-327.65
	1379	138	-2.10040E-001	8.37154E-009	0.00000E+000	-2.10000E-001	4.73035E-005	6	..........a	-327.65
	1380	138.1	-2.00019E-001	9.12253E-009	0.00000E+000	-2.00000E-001	4.73702E-005	6	..........a	-327.65
	1381	138.2	-1.90082E-001	9.87448E-009	0.00000E+000	-1.90000E-001	4.93702E-005	6	..........a	-327.65
	1382	138.3	-1.80006E-001	1.05873E-008	0.00000E+000	-1.80000E-001	4.83702E-005	6	..........a	-327.65
	1383	138.4	-1.70009E-001	1.12973E-008	0.00000E+000	-1.70000E-001	4.53702E-005	6	..........a	-327.65
	1384	138.5	-1.59970E-001	1.20044E-008	0.00000E+000	-1.60000E-001	4.51702E-005	6	..........a	-327.65
	1385	138.6	-1.50032E-001	1.27112E-008	0.00000E+000	-1.50000E-001	4.41702E-005	6	..........a	-327.65
	1386	138.7	-1.40012E-001	1.34116E-008	0.00000E+000	-1.40000E-001	4.42035E-005	6	..........a	-327.65
	1387	138.8	-1.30036E-001	1.41291E-008	0.00000E+000	-1.30000E-001	4.43035E-005	6	..........a	-327.65
	1388	138.9	-1.20000E-001	1.48579E-008	0.00000E+000	-1.20000E-001	4.99035E-005	6	..........a	-327.65
	1389	139	-1.10033E-001	1.55845E-008	0.00000E+000	-1.10000E-001	4.80035E-005	6	..........a	-327.65
	1390	139.1	-1.00016E-001	1.63040E-008	0.00000E+000	-1.00000E-001	5.12368E-005	6	..........a	-327.65
	1391	139.2	-9.00320E-002	1.70669E-008	0.00000E+000	-9.00000E-002	4.63035E-005	6	..........a	-327.65
	1392	139.3	-8.00072E-002	1.78151E-008	0.00000E+000	-8.00000E-002	4.12368E-005	6	..........a	-327.65
	1393	139.4	-7.00172E-002	1.85867E-008	0.00000E+000	-7.00000E-002	4.50702E-005	6	..........a	-327.65
	1394	139.5	-6.00014E-002	1.93678E-008	0.00000E+000	-6.00000E-002	4.44035E-005	6	..........a	-327.65
	1395	139.6	-5.00568E-002	2.01882E-008	0.00000E+000	-5.00000E-002	4.78368E-005	6	..........a	-327.65
	1396	139.7	-4.00163E-002	2.10199E-008	0.00000E+000	-4.00000E-002	4.14368E-005	6	..........a	-327.65
	1397	139.8	-3.00492E-002	2.18779E-008	0.00000E+000	-3.00000E-002	4.20368E-005	6	..........a	-327.65
	1398	139.9	-1.99929E-002	2.27704E-008	0.00000E+000	-2.00000E-002	4.14035E-005	6	..........a	-327.65
	1399	140	-1.00362E-002	2.36818E-008	0.00000E+000	-1.00000E-002	4.38702E-005	6	..........a	-327.65
	1400	140.1	7.58227E-005	2.46290E-008	0.00000E+000	7.45058E-009	1.13557E-003	6	..........a	-327.65