File: Figure 1F/data/2.5M.DTA
EXPLAIN
TAG	CV
TITLE	LABEL	Cyclic Voltammetry	Test &Identifier
DATE	LABEL	8/23/2021	Date
TIME	LABEL	12:55:54	Time
NOTES	NOTES	1	&Notes...

PSTAT	PSTAT	REF600P-40007	Potentiostat
VINIT	POTEN	0.00000E+000	F	Initial &E (V)
VLIMIT1	POTEN	8.00000E-001	F	Scan Limit &1 (V)
VLIMIT2	POTEN	-6.00000E-001	F	Scan Limit &2 (V)
VFINAL	POTEN	0.00000E+000	F	Final &E (V)
SCANRATE	QUANT	9.99998E+001	&Scan Rate (mV/s)
STEPSIZE	QUANT	1.00000E+001	St&ep Size (mV)
CYCLES	IQUANT	5	C&ycles (#)
IMODE	SELECTOR	0	I/E Range &Mode
IRANGE	QUANT	3.00000E-001	&Max Current (mA)
AREA	QUANT	2.87000E-005	Electrode &Area (cm^2)
ELECTRODETYPE	SELECTOR	0	Electrode Type
STRIPPING	TOGGLE	F	Used for Stripping
POLARITY	TOGGLE	F	Signal Polarity
CONDIT	TWOPARAM	F	1.50000E+001	0.00000E+000	Conditionin&g	Time(s)	E(V)
DELAY	TWOPARAM	T	5.00000E+000	0.00000E+000	Init. De&lay	Time(s)	Stab.(mV/s)
EQDELAY	QUANT	5.00000E+000	Equil. &Time (s)
IRCOMP	SELECTOR	0	IRCom&p
PFCOR	QUANT	5.00000E+001	PF Corr. (ohm)
SAMPLINGMODE	SELECTOR	2	Sampling &Mode
OCVCURVE	TABLE	19
	Pt	T	Vf	Vm	Ach	Over	Temp
	#	s	V vs. Ref.	V	V	bits	deg C
	0	0.258333	1.52971E-001	1.52971E-001	1.18240E-003	..........a	-327.65
	1	0.516667	1.52944E-001	1.51547E-001	1.17200E-003	..........a	-327.65
	2	0.775	1.52807E-001	1.51778E-001	1.17120E-003	..........a	-327.65
	3	1.03333	1.52520E-001	1.51990E-001	1.17574E-003	..........a	-327.65
	4	1.29167	1.52197E-001	1.52043E-001	1.16894E-003	..........a	-327.65
	5	1.55	1.51995E-001	1.52058E-001	1.17380E-003	..........a	-327.65
	6	1.80833	1.51946E-001	1.52073E-001	1.17227E-003	..........a	-327.65
	7	2.06667	1.51977E-001	1.52000E-001	1.17907E-003	..........a	-327.65
	8	2.325	1.52017E-001	1.52006E-001	1.16454E-003	..........a	-327.65
	9	2.58333	1.52031E-001	1.51915E-001	1.17974E-003	..........a	-327.65
	10	2.84167	1.52017E-001	1.51929E-001	1.16600E-003	..........a	-327.65
	11	3.1	1.51988E-001	1.51940E-001	1.18167E-003	..........a	-327.65
	12	3.35833	1.51960E-001	1.51955E-001	1.17174E-003	..........a	-327.65
	13	3.61667	1.51944E-001	1.51953E-001	1.17674E-003	..........a	-327.65
	14	3.875	1.51941E-001	1.51956E-001	1.17434E-003	..........a	-327.65
	15	4.13333	1.51946E-001	1.51965E-001	1.16387E-003	..........a	-327.65
	16	4.39167	1.51952E-001	1.51956E-001	1.16674E-003	..........a	-327.65
	17	4.65	1.51956E-001	1.51964E-001	1.17154E-003	..........a	-327.65
	18	4.90833	1.51959E-001	1.51961E-001	1.17620E-003	..........a	-327.65
EOC	QUANT	0.1519592	Open Circuit (V)
PSTATMODEL	IQUANT	7	Pstat Model
PSTATSECTION	LABEL	REF600P-40007	Pstat Section
PSTATSERIALNO	LABEL	40007	Pstat Serial Number
CTRLMODE	IQUANT	1	Control Mode
ELECTROMETER	IQUANT	0	RE=0 or CS=1
IESTAB	IQUANT	2	I/E Stability
CASPEED	IQUANT	4	Control Amp Speed
CONVENTION	IQUANT	1	Current Convention
ICHRANGE	IQUANT	2	Ich Range
ICHRANGEMODE	TOGGLE	F	Ich Auto Range
ICHOFFSETENABLE	TOGGLE	F	Ich Offset Enable
ICHOFFSET	QUANT	0	Ich Offset (V)
ICHFILTER	IQUANT	2	Ich Filter
VCHRANGE	IQUANT	2	Vch Range
VCHRANGEMODE	TOGGLE	F	Vch Auto Range
VCHOFFSETENABLE	TOGGLE	F	Vch Offset Enable
VCHOFFSET	QUANT	0	Vch Offset (V)
VCHFILTER	IQUANT	2	Vch Filter
ACHRANGE	IQUANT	2	Ach Range
ACHOFFSETENABLE	TOGGLE	F	Ach Offset Enable
ACHOFFSET	QUANT	0	Ach Offset (V)
ACHFILTER	IQUANT	1	Ach Filter
IERANGELOWERLIMIT	IQUANT	1	I/E Range Lower Limit
IERANGEMODE	TOGGLE	T	I/E AutoRange
IERANGE	IQUANT	8	I/E Range
POSFEEDENABLE	TOGGLE	F	Positive Feedback IR Comp
POSFEEDRESISTANCE	QUANT	0	Positive Feedback Resistance (ohm)
ACHSELECT	IQUANT	0	Ach Select
SENSECABLEID	IQUANT	7	Sense Cable ID
PWRCABLEID	IQUANT	7	Power Cable ID
DCCALDATE	LABEL	8/21/2021	DC Calibration Date
ACCALDATE	LABEL	8/21/2021	AC Calibration Date
THERMOSELECT	IQUANT	1	Thermo Select
FRAMEWORKVERSION	LABEL	7.8.1	Framework Version
INSTRUMENTVERSION	LABEL	4.40	Instrument Version
CURVE1	TABLE
	Pt	T	Vf	Im	Vu	Sig	Ach	IERange	Over	Temp
	#	s	V vs. Ref.	A	V	V	V	#	bits	deg C
	0	0.1	1.01859E-004	1.29863E-007	0.00000E+000	7.45058E-009	1.15587E-003	8	..........a	-327.65
	3	0.4	3.00938E-002	1.36421E-008	0.00000E+000	3.00000E-002	1.14104E-003	6	..........a	-327.65
	6	0.7	6.01124E-002	1.70349E-008	0.00000E+000	6.00000E-002	5.03368E-005	6	..........a	-327.65
	9	1	9.00436E-002	1.96407E-008	0.00000E+000	9.00000E-002	5.02035E-005	6	..........a	-327.65
	12	1.3	1.20074E-001	2.19467E-008	0.00000E+000	1.20000E-001	4.71702E-005	6	..........a	-327.65
	15	1.6	1.50093E-001	2.39503E-008	0.00000E+000	1.50000E-001	5.01368E-005	6	..........a	-327.65
	18	1.9	1.80089E-001	2.58374E-008	0.00000E+000	1.80000E-001	4.92702E-005	6	..........a	-327.65
	21	2.2	2.10092E-001	2.77169E-008	0.00000E+000	2.10000E-001	5.29035E-005	6	..........a	-327.65
	24	2.5	2.40107E-001	2.96448E-008	0.00000E+000	2.40000E-001	4.89368E-005	6	..........a	-327.65
	27	2.8	2.70038E-001	3.12990E-008	0.00000E+000	2.70000E-001	4.42368E-005	6	..........a	-327.65
	30	3.1	3.00134E-001	3.22929E-008	0.00000E+000	3.00000E-001	3.92702E-005	6	..........a	-327.65
	33	3.4	3.30081E-001	3.26465E-008	0.00000E+000	3.30000E-001	4.64702E-005	6	..........a	-327.65
	36	3.7	3.60066E-001	3.25713E-008	0.00000E+000	3.60000E-001	4.96702E-005	6	..........a	-327.65
	39	4	3.90086E-001	3.22317E-008	0.00000E+000	3.90000E-001	4.84369E-005	6	..........a	-327.65
	42	4.3	4.20160E-001	3.18705E-008	0.00000E+000	4.20000E-001	4.81035E-005	6	..........a	-327.65
	45	4.6	4.50122E-001	3.15655E-008	0.00000E+000	4.50000E-001	4.62702E-005	6	..........a	-327.65
	48	4.9	4.80131E-001	3.13772E-008	0.00000E+000	4.80000E-001	4.97702E-005	6	..........a	-327.65
	51	5.2	5.10137E-001	3.12351E-008	0.00000E+000	5.10000E-001	4.79368E-005	6	..........a	-327.65
	54	5.5	5.40159E-001	3.11653E-008	0.00000E+000	5.40000E-001	4.61035E-005	6	..........a	-327.65
	57	5.8	5.70164E-001	3.11787E-008	0.00000E+000	5.70000E-001	4.62368E-005	6	..........a	-327.65
	60	6.1	6.00158E-001	3.12815E-008	0.00000E+000	6.00000E-001	5.36702E-005	6	..........a	-327.65
	63	6.4	6.30136E-001	3.16151E-008	0.00000E+000	6.30000E-001	4.80702E-005	6	..........a	-327.65
	66	6.7	6.60144E-001	3.23214E-008	0.00000E+000	6.60000E-001	4.43368E-005	6	..........a	-327.65
	69	7	6.90144E-001	3.34613E-008	0.00000E+000	6.90000E-001	4.89702E-005	6	..........a	-327.65
	72	7.3	7.20121E-001	3.52647E-008	0.00000E+000	7.20000E-001	4.86702E-005	6	..........a	-327.65
	75	7.6	7.50146E-001	3.80688E-008	0.00000E+000	7.50000E-001	4.95368E-005	6	..........a	-327.65
	78	7.9	7.80163E-001	4.20884E-008	0.00000E+000	7.80000E-001	5.36702E-005	6	..........a	-327.65
	81	8.2	7.90176E-001	1.49306E-008	0.00000E+000	7.90000E-001	4.81368E-005	6	..........a	-327.65
	84	8.5	7.60200E-001	-1.93669E-009	0.00000E+000	7.60000E-001	5.45035E-005	6	..........a	-327.65
	87	8.8	7.30123E-001	-8.67310E-009	0.00000E+000	7.30000E-001	5.41702E-005	6	..........a	-327.65
	90	9.1	7.00216E-001	-1.21514E-008	0.00000E+000	7.00000E-001	5.35368E-005	6	..........a	-327.65
	93	9.4	6.70179E-001	-1.41942E-008	0.00000E+000	6.70000E-001	5.30702E-005	6	..........a	-327.65
	96	9.7	6.40164E-001	-1.55351E-008	0.00000E+000	6.40000E-001	5.93368E-005	6	..........a	-327.65
	99	10	6.10191E-001	-1.64963E-008	0.00000E+000	6.10000E-001	5.63702E-005	6	..........a	-327.65
	102	10.3	5.80243E-001	-1.71996E-008	0.00000E+000	5.80000E-001	6.10702E-005	6	..........a	-327.65
	105	10.6	5.50210E-001	-1.77798E-008	0.00000E+000	5.50000E-001	5.77369E-005	6	..........a	-327.65
	108	10.9	5.20181E-001	-1.82730E-008	0.00000E+000	5.20000E-001	5.80368E-005	6	..........a	-327.65
	111	11.2	4.90207E-001	-1.87495E-008	0.00000E+000	4.90000E-001	5.68035E-005	6	..........a	-327.65
	114	11.5	4.60223E-001	-1.92143E-008	0.00000E+000	4.60000E-001	5.55702E-005	6	..........a	-327.65
	117	11.8	4.30164E-001	-1.96419E-008	0.00000E+000	4.30000E-001	6.20035E-005	6	..........a	-327.65
	120	12.1	4.00163E-001	-1.99880E-008	0.00000E+000	4.00000E-001	5.77369E-005	6	..........a	-327.65
	123	12.4	3.70147E-001	-2.03650E-008	0.00000E+000	3.70000E-001	5.59035E-005	6	..........a	-327.65
	126	12.7	3.40147E-001	-2.07547E-008	0.00000E+000	3.40000E-001	5.62035E-005	6	..........a	-327.65
	129	13	3.10116E-001	-2.10673E-008	0.00000E+000	3.10000E-001	5.72702E-005	6	..........a	-327.65
	132	13.3	2.80123E-001	-2.15399E-008	0.00000E+000	2.80000E-001	5.89368E-005	6	..........a	-327.65
	135	13.6	2.50155E-001	-2.21439E-008	0.00000E+000	2.50000E-001	5.28702E-005	6	..........a	-327.65
	138	13.9	2.20164E-001	-2.28592E-008	0.00000E+000	2.20000E-001	5.63702E-005	6	..........a	-327.65
	141	14.2	1.90149E-001	-2.36321E-008	0.00000E+000	1.90000E-001	6.10369E-005	6	..........a	-327.65
	144	14.5	1.60129E-001	-2.45769E-008	0.00000E+000	1.60000E-001	6.55702E-005	6	..........a	-327.65
	147	14.8	1.30129E-001	-2.56498E-008	0.00000E+000	1.30000E-001	6.30369E-005	6	..........a	-327.65
	150	15.1	1.00155E-001	-2.66433E-008	0.00000E+000	1.00000E-001	5.79368E-005	6	..........a	-327.65
	153	15.4	7.01179E-002	-2.76503E-008	0.00000E+000	7.00000E-002	5.77035E-005	6	..........a	-327.65
	156	15.7	4.01187E-002	-2.86962E-008	0.00000E+000	4.00000E-002	5.41035E-005	6	..........a	-327.65
	159	16	1.01581E-002	-2.97705E-008	0.00000E+000	1.00000E-002	5.48368E-005	6	..........a	-327.65
	162	16.3	-1.99459E-002	-3.09034E-008	0.00000E+000	-2.00000E-002	5.62368E-005	6	..........a	-327.65
	165	16.6	-5.00158E-002	-3.23647E-008	0.00000E+000	-5.00000E-002	5.40368E-005	6	..........a	-327.65
	168	16.9	-7.99642E-002	-3.40438E-008	0.00000E+000	-8.00000E-002	5.69702E-005	6	..........a	-327.65
	171	17.2	-1.09975E-001	-3.61479E-008	0.00000E+000	-1.10000E-001	5.29702E-005	6	..........a	-327.65
	174	17.5	-1.39975E-001	-3.87529E-008	0.00000E+000	-1.40000E-001	5.13702E-005	6	..........a	-327.65
	177	17.8	-1.69954E-001	-4.16995E-008	0.00000E+000	-1.70000E-001	5.20702E-005	6	..........a	-327.65
	180	18.1	-1.99960E-001	-4.48555E-008	0.00000E+000	-2.00000E-001	6.19035E-005	6	..........a	-327.65
	183	18.4	-2.29989E-001	-4.82317E-008	0.00000E+000	-2.30000E-001	6.13702E-005	6	..........a	-327.65
	186	18.7	-2.59920E-001	-5.14921E-008	0.00000E+000	-2.60000E-001	6.10035E-005	6	..........a	-327.65
	189	19	-2.89945E-001	-5.46748E-008	0.00000E+000	-2.90000E-001	6.54702E-005	6	..........a	-327.65
	192	19.3	-3.19920E-001	-5.79263E-008	0.00000E+000	-3.20000E-001	6.15702E-005	6	..........a	-327.65
	195	19.6	-3.49973E-001	-6.14461E-008	0.00000E+000	-3.50000E-001	5.99035E-005	6	..........a	-327.65
	198	19.9	-3.79941E-001	-6.53448E-008	0.00000E+000	-3.80000E-001	5.69369E-005	6	..........a	-327.65
	201	20.2	-4.10052E-001	-6.98744E-008	0.00000E+000	-4.10000E-001	6.50368E-005	6	..........a	-327.65
	204	20.5	-4.40029E-001	-7.49461E-008	0.00000E+000	-4.40000E-001	6.70035E-005	6	..........a	-327.65
	207	20.8	-4.70039E-001	-8.03263E-008	0.00000E+000	-4.70000E-001	5.82035E-005	6	..........a	-327.65
	210	21.1	-5.00036E-001	-8.56118E-008	0.00000E+000	-5.00000E-001	6.13368E-005	6	..........a	-327.65
	213	21.4	-5.30029E-001	-9.05204E-008	0.00000E+000	-5.30000E-001	6.05368E-005	6	..........a	-327.65
	216	21.7	-5.60035E-001	-9.49166E-008	0.00000E+000	-5.60000E-001	6.32702E-005	6	..........a	-327.65
	219	22	-5.90061E-001	-9.92502E-008	0.00000E+000	-5.90000E-001	6.45035E-005	6	..........a	-327.65
	220	22.1	-6.00056E-001	-1.00821E-007	0.00000E+000	-6.00000E-001	6.63035E-005	6	..........a	-327.65
CURVE2	TABLE
	Pt	T	Vf	Im	Vu	Sig	Ach	IERange	Over	Temp
	#	s	V vs. Ref.	A	V	V	V	#	bits	deg C
	221	22.2	-5.90102E-001	-6.64089E-008	0.00000E+000	-5.90000E-001	6.76035E-005	6	..........a	-327.65
	224	22.5	-5.60077E-001	-4.10276E-008	0.00000E+000	-5.60000E-001	6.20035E-005	6	..........a	-327.65
	227	22.8	-5.30078E-001	-3.00769E-008	0.00000E+000	-5.30000E-001	6.24368E-005	6	..........a	-327.65
	230	23.1	-5.00090E-001	-2.37874E-008	0.00000E+000	-5.00000E-001	5.57368E-005	6	..........a	-327.65
	233	23.4	-4.70112E-001	-1.89843E-008	0.00000E+000	-4.70000E-001	5.22035E-005	6	..........a	-327.65
	236	23.7	-4.40092E-001	-1.44238E-008	0.00000E+000	-4.40000E-001	5.02702E-005	6	..........a	-327.65
	239	24	-4.10109E-001	-9.88719E-009	0.00000E+000	-4.10000E-001	5.51035E-005	6	..........a	-327.65
	242	24.3	-3.80001E-001	-5.18231E-009	0.00000E+000	-3.80000E-001	5.80702E-005	6	..........a	-327.65
	245	24.6	-3.50026E-001	-7.65310E-010	0.00000E+000	-3.50000E-001	5.49702E-005	6	..........a	-327.65
	248	24.9	-3.20004E-001	2.94908E-009	0.00000E+000	-3.20000E-001	5.17035E-005	6	..........a	-327.65
	251	25.2	-2.90043E-001	6.16609E-009	0.00000E+000	-2.90000E-001	5.21368E-005	6	..........a	-327.65
	254	25.5	-2.59980E-001	9.07121E-009	0.00000E+000	-2.60000E-001	4.89702E-005	6	..........a	-327.65
	257	25.8	-2.30046E-001	1.17815E-008	0.00000E+000	-2.30000E-001	5.13702E-005	6	..........a	-327.65
	260	26.1	-2.00023E-001	1.43150E-008	0.00000E+000	-2.00000E-001	4.97035E-005	6	..........a	-327.65
	263	26.4	-1.70004E-001	1.68578E-008	0.00000E+000	-1.70000E-001	4.88702E-005	6	..........a	-327.65
	266	26.7	-1.40022E-001	1.92947E-008	0.00000E+000	-1.40000E-001	4.41702E-005	6	..........a	-327.65
	269	27	-1.10031E-001	2.17307E-008	0.00000E+000	-1.10000E-001	4.45702E-005	6	..........a	-327.65
	272	27.3	-8.00204E-002	2.39132E-008	0.00000E+000	-8.00000E-002	4.17035E-005	6	..........a	-327.65
	275	27.6	-5.00608E-002	2.64536E-008	0.00000E+000	-5.00000E-002	3.44368E-005	6	..........a	-327.65
	278	27.9	-1.99915E-002	2.89051E-008	0.00000E+000	-2.00000E-002	3.46368E-005	6	..........a	-327.65
	281	28.2	1.01139E-002	3.15838E-008	0.00000E+000	1.00000E-002	4.11702E-005	6	..........a	-327.65
	284	28.5	4.00744E-002	3.44414E-008	0.00000E+000	4.00000E-002	4.01035E-005	6	..........a	-327.65
	287	28.8	7.00793E-002	3.75282E-008	0.00000E+000	7.00000E-002	4.37369E-005	6	..........a	-327.65
	290	29.1	1.00108E-001	4.08993E-008	0.00000E+000	1.00000E-001	4.78368E-005	6	..........a	-327.65
	293	29.4	1.30087E-001	4.45327E-008	0.00000E+000	1.30000E-001	4.02035E-005	6	..........a	-327.65
	296	29.7	1.60085E-001	4.81565E-008	0.00000E+000	1.60000E-001	4.96369E-005	6	..........a	-327.65
	299	30	1.90105E-001	5.14710E-008	0.00000E+000	1.90000E-001	4.63702E-005	6	..........a	-327.65
	302	30.3	2.20128E-001	5.43370E-008	0.00000E+000	2.20000E-001	4.95035E-005	6	..........a	-327.65
	305	30.6	2.50113E-001	5.64592E-008	0.00000E+000	2.50000E-001	4.96702E-005	6	..........a	-327.65
	308	30.9	2.80081E-001	5.77079E-008	0.00000E+000	2.80000E-001	4.81702E-005	6	..........a	-327.65
	311	31.2	3.10074E-001	5.80599E-008	0.00000E+000	3.10000E-001	4.87702E-005	6	..........a	-327.65
	314	31.5	3.40102E-001	5.75328E-008	0.00000E+000	3.40000E-001	4.74702E-005	6	..........a	-327.65
	317	31.8	3.70104E-001	5.64176E-008	0.00000E+000	3.70000E-001	4.22702E-005	6	..........a	-327.65
	320	32.1	4.00119E-001	5.50235E-008	0.00000E+000	4.00000E-001	4.42368E-005	6	..........a	-327.65
	323	32.4	4.30125E-001	5.36847E-008	0.00000E+000	4.30000E-001	4.69702E-005	6	..........a	-327.65
	326	32.7	4.60180E-001	5.26412E-008	0.00000E+000	4.60000E-001	4.31368E-005	6	..........a	-327.65
	329	33	4.90161E-001	5.19161E-008	0.00000E+000	4.90000E-001	4.34702E-005	6	..........a	-327.65
	332	33.3	5.20140E-001	5.15169E-008	0.00000E+000	5.20000E-001	4.46369E-005	6	..........a	-327.65
	335	33.6	5.50165E-001	5.13195E-008	0.00000E+000	5.50000E-001	4.62035E-005	6	..........a	-327.65
	338	33.9	5.80205E-001	5.13819E-008	0.00000E+000	5.80000E-001	4.77369E-005	6	..........a	-327.65
	341	34.2	6.10154E-001	5.16335E-008	0.00000E+000	6.10000E-001	4.45702E-005	6	..........a	-327.65
	344	34.5	6.40123E-001	5.21839E-008	0.00000E+000	6.40000E-001	4.56702E-005	6	..........a	-327.65
	347	34.8	6.70137E-001	5.30296E-008	0.00000E+000	6.70000E-001	4.79035E-005	6	..........a	-327.65
	350	35.1	7.00179E-001	5.43261E-008	0.00000E+000	7.00000E-001	5.17035E-005	6	..........a	-327.65
	353	35.4	7.30079E-001	5.62239E-008	0.00000E+000	7.30000E-001	5.09702E-005	6	..........a	-327.65
	356	35.7	7.60161E-001	5.89598E-008	0.00000E+000	7.60000E-001	4.87035E-005	6	..........a	-327.65
	359	36	7.90136E-001	6.28121E-008	0.00000E+000	7.90000E-001	4.52702E-005	6	..........a	-327.65
	362	36.3	7.80201E-001	1.90530E-008	0.00000E+000	7.80000E-001	3.50035E-005	6	..........a	-327.65
	365	36.6	7.50187E-001	1.93108E-009	0.00000E+000	7.50000E-001	4.77702E-005	6	..........a	-327.65
	368	36.9	7.20167E-001	-6.18307E-009	0.00000E+000	7.20000E-001	5.12035E-005	6	..........a	-327.65
	371	37.2	6.90184E-001	-1.07338E-008	0.00000E+000	6.90000E-001	4.51702E-005	6	..........a	-327.65
	374	37.5	6.60195E-001	-1.35606E-008	0.00000E+000	6.60000E-001	4.70368E-005	6	..........a	-327.65
	377	37.8	6.30185E-001	-1.54736E-008	0.00000E+000	6.30000E-001	4.49702E-005	6	..........a	-327.65
	380	38.1	6.00207E-001	-1.69251E-008	0.00000E+000	6.00000E-001	4.55035E-005	6	..........a	-327.65
	383	38.4	5.70210E-001	-1.80415E-008	0.00000E+000	5.70000E-001	4.42702E-005	6	..........a	-327.65
	386	38.7	5.40211E-001	-1.90030E-008	0.00000E+000	5.40000E-001	4.42368E-005	6	..........a	-327.65
	389	39	5.10181E-001	-1.98250E-008	0.00000E+000	5.10000E-001	5.22368E-005	6	..........a	-327.65
	392	39.3	4.80179E-001	-2.05598E-008	0.00000E+000	4.80000E-001	4.88702E-005	6	..........a	-327.65
	395	39.6	4.50160E-001	-2.12402E-008	0.00000E+000	4.50000E-001	5.03035E-005	6	..........a	-327.65
	398	39.9	4.20212E-001	-2.17915E-008	0.00000E+000	4.20000E-001	4.33702E-005	6	..........a	-327.65
	401	40.2	3.90133E-001	-2.23035E-008	0.00000E+000	3.90000E-001	4.91035E-005	6	..........a	-327.65
	404	40.5	3.60110E-001	-2.27833E-008	0.00000E+000	3.60000E-001	4.64035E-005	6	..........a	-327.65
[...]
	1271	127.2	9.00926E-002	-3.22454E-008	0.00000E+000	9.00000E-002	2.71035E-005	6	..........a	-327.65
	1274	127.5	6.01679E-002	-3.35146E-008	0.00000E+000	6.00000E-002	2.46369E-005	6	..........a	-327.65
	1277	127.8	3.01409E-002	-3.48403E-008	0.00000E+000	3.00000E-002	2.67368E-005	6	..........a	-327.65
	1280	128.1	1.16313E-004	-3.60903E-008	0.00000E+000	7.45058E-009	2.94035E-005	6	..........a	-327.65
	1283	128.4	-3.00030E-002	-3.74439E-008	0.00000E+000	-3.00000E-002	3.61702E-005	6	..........a	-327.65
	1286	128.7	-5.99530E-002	-3.88851E-008	0.00000E+000	-6.00000E-002	3.42368E-005	6	..........a	-327.65
	1289	129	-8.99743E-002	-4.04138E-008	0.00000E+000	-9.00000E-002	3.79368E-005	6	..........a	-327.65
	1292	129.3	-1.19939E-001	-4.20714E-008	0.00000E+000	-1.20000E-001	3.93702E-005	6	..........a	-327.65
	1295	129.6	-1.49979E-001	-4.38863E-008	0.00000E+000	-1.50000E-001	3.60368E-005	6	..........a	-327.65
	1298	129.9	-1.79938E-001	-4.58730E-008	0.00000E+000	-1.80000E-001	3.49702E-005	6	..........a	-327.65
	1301	130.2	-2.09975E-001	-4.79067E-008	0.00000E+000	-2.10000E-001	3.57035E-005	6	..........a	-327.65
	1304	130.5	-2.39951E-001	-5.00419E-008	0.00000E+000	-2.40000E-001	4.37035E-005	6	..........a	-327.65
	1307	130.8	-2.69939E-001	-5.21563E-008	0.00000E+000	-2.70000E-001	3.72368E-005	6	..........a	-327.65
	1310	131.1	-2.99954E-001	-5.41704E-008	0.00000E+000	-3.00000E-001	4.00369E-005	6	..........a	-327.65
	1313	131.4	-3.29983E-001	-5.62862E-008	0.00000E+000	-3.30000E-001	4.01368E-005	6	..........a	-327.65
	1316	131.7	-3.59945E-001	-5.83146E-008	0.00000E+000	-3.60000E-001	3.59702E-005	6	..........a	-327.65
	1319	132	-3.90005E-001	-6.03278E-008	0.00000E+000	-3.90000E-001	3.78702E-005	6	..........a	-327.65
	1322	132.3	-4.20048E-001	-6.23507E-008	0.00000E+000	-4.20000E-001	4.20702E-005	6	..........a	-327.65
	1325	132.6	-4.50045E-001	-6.42791E-008	0.00000E+000	-4.50000E-001	4.33368E-005	6	..........a	-327.65
	1328	132.9	-4.80022E-001	-6.61414E-008	0.00000E+000	-4.80000E-001	4.74368E-005	6	..........a	-327.65
	1331	133.2	-5.10076E-001	-6.80021E-008	0.00000E+000	-5.10000E-001	4.50035E-005	6	..........a	-327.65
	1334	133.5	-5.40032E-001	-7.03264E-008	0.00000E+000	-5.40000E-001	4.33368E-005	6	..........a	-327.65
	1337	133.8	-5.70038E-001	-7.32518E-008	0.00000E+000	-5.70000E-001	4.61702E-005	6	..........a	-327.65
	1340	134.1	-6.00073E-001	-7.72446E-008	0.00000E+000	-6.00000E-001	1.13540E-003	6	..........a	-327.65
CURVE6	TABLE
	Pt	T	Vf	Im	Vu	Sig	Ach	IERange	Over	Temp
	#	s	V vs. Ref.	A	V	V	V	#	bits	deg C
	1341	134.2	-5.90112E-001	-4.62548E-008	0.00000E+000	-5.90000E-001	4.68035E-005	6	..........a	-327.65
	1342	134.3	-5.80057E-001	-3.86271E-008	0.00000E+000	-5.80000E-001	4.70035E-005	6	..........a	-327.65
	1343	134.4	-5.70086E-001	-3.35326E-008	0.00000E+000	-5.70000E-001	4.69368E-005	6	..........a	-327.65
	1344	134.5	-5.60086E-001	-2.97420E-008	0.00000E+000	-5.60000E-001	4.32702E-005	6	..........a	-327.65
	1345	134.6	-5.50140E-001	-2.67829E-008	0.00000E+000	-5.50000E-001	3.37702E-005	6	..........a	-327.65
	1346	134.7	-5.40079E-001	-2.43532E-008	0.00000E+000	-5.40000E-001	3.64368E-005	6	..........a	-327.65
	1347	134.8	-5.30083E-001	-2.21981E-008	0.00000E+000	-5.30000E-001	3.38368E-005	6	..........a	-327.65
	1348	134.9	-5.20072E-001	-2.02019E-008	0.00000E+000	-5.20000E-001	3.13035E-005	6	..........a	-327.65
	1349	135	-5.10129E-001	-1.83927E-008	0.00000E+000	-5.10000E-001	3.00368E-005	6	..........a	-327.65
	1350	135.1	-5.00088E-001	-1.66069E-008	0.00000E+000	-5.00000E-001	2.90368E-005	6	..........a	-327.65
	1351	135.2	-4.90122E-001	-1.48469E-008	0.00000E+000	-4.90000E-001	3.03035E-005	6	..........a	-327.65
	1352	135.3	-4.80087E-001	-1.30670E-008	0.00000E+000	-4.80000E-001	3.47368E-005	6	..........a	-327.65
	1353	135.4	-4.70112E-001	-1.12518E-008	0.00000E+000	-4.70000E-001	3.64035E-005	6	..........a	-327.65
	1354	135.5	-4.60099E-001	-9.43329E-009	0.00000E+000	-4.60000E-001	3.82035E-005	6	..........a	-327.65
	1355	135.6	-4.50100E-001	-7.58235E-009	0.00000E+000	-4.50000E-001	3.81368E-005	6	..........a	-327.65
	1356	135.7	-4.40095E-001	-5.72930E-009	0.00000E+000	-4.40000E-001	4.04035E-005	6	..........a	-327.65
	1357	135.8	-4.30097E-001	-3.86079E-009	0.00000E+000	-4.30000E-001	3.77368E-005	6	..........a	-327.65
	1358	135.9	-4.20097E-001	-2.06219E-009	0.00000E+000	-4.20000E-001	3.36368E-005	6	..........a	-327.65
	1359	136	-4.10111E-001	-2.45958E-010	0.00000E+000	-4.10000E-001	3.87702E-005	6	..........a	-327.65
	1360	136.1	-4.00022E-001	1.43144E-009	0.00000E+000	-4.00000E-001	4.16702E-005	6	..........a	-327.65
	1361	136.2	-3.90060E-001	3.00076E-009	0.00000E+000	-3.90000E-001	3.90368E-005	6	..........a	-327.65
	1362	136.3	-3.80003E-001	4.43252E-009	0.00000E+000	-3.80000E-001	3.80702E-005	6	..........a	-327.65
	1363	136.4	-3.70087E-001	5.73957E-009	0.00000E+000	-3.70000E-001	4.09369E-005	6	..........a	-327.65
	1364	136.5	-3.60014E-001	6.87980E-009	0.00000E+000	-3.60000E-001	4.16702E-005	6	..........a	-327.65
	1365	136.6	-3.50026E-001	7.85286E-009	0.00000E+000	-3.50000E-001	3.49035E-005	6	..........a	-327.65
	1366	136.7	-3.40021E-001	8.72428E-009	0.00000E+000	-3.40000E-001	3.65035E-005	6	..........a	-327.65
	1367	136.8	-3.30035E-001	9.49971E-009	0.00000E+000	-3.30000E-001	3.55035E-005	6	..........a	-327.65
	1368	136.9	-3.20000E-001	1.01865E-008	0.00000E+000	-3.20000E-001	3.11368E-005	6	..........a	-327.65
	1369	137	-3.10040E-001	1.07890E-008	0.00000E+000	-3.10000E-001	3.80702E-005	6	..........a	-327.65
	1370	137.1	-3.00007E-001	1.14201E-008	0.00000E+000	-3.00000E-001	4.07035E-005	6	..........a	-327.65
	1371	137.2	-2.90031E-001	1.20176E-008	0.00000E+000	-2.90000E-001	3.74702E-005	6	..........a	-327.65
	1372	137.3	-2.80025E-001	1.26308E-008	0.00000E+000	-2.80000E-001	3.33702E-005	6	..........a	-327.65
	1373	137.4	-2.70002E-001	1.32210E-008	0.00000E+000	-2.70000E-001	3.35368E-005	6	..........a	-327.65
	1374	137.5	-2.59984E-001	1.38280E-008	0.00000E+000	-2.60000E-001	3.19035E-005	6	..........a	-327.65
	1375	137.6	-2.50032E-001	1.44639E-008	0.00000E+000	-2.50000E-001	3.45702E-005	6	..........a	-327.65
	1376	137.7	-2.40011E-001	1.50762E-008	0.00000E+000	-2.40000E-001	3.83702E-005	6	..........a	-327.65
	1377	137.8	-2.30047E-001	1.57557E-008	0.00000E+000	-2.30000E-001	3.25035E-005	6	..........a	-327.65
	1378	137.9	-2.19981E-001	1.64254E-008	0.00000E+000	-2.20000E-001	2.83702E-005	6	..........a	-327.65
	1379	138	-2.10035E-001	1.70940E-008	0.00000E+000	-2.10000E-001	2.84035E-005	6	..........a	-327.65
	1380	138.1	-2.00021E-001	1.77496E-008	0.00000E+000	-2.00000E-001	2.70702E-005	6	..........a	-327.65
	1381	138.2	-1.90080E-001	1.84255E-008	0.00000E+000	-1.90000E-001	2.98035E-005	6	..........a	-327.65
	1382	138.3	-1.79995E-001	1.90920E-008	0.00000E+000	-1.80000E-001	3.24702E-005	6	..........a	-327.65
	1383	138.4	-1.70002E-001	1.97464E-008	0.00000E+000	-1.70000E-001	2.96702E-005	6	..........a	-327.65
	1384	138.5	-1.59982E-001	2.04351E-008	0.00000E+000	-1.60000E-001	2.60035E-005	6	..........a	-327.65
	1385	138.6	-1.50029E-001	2.10769E-008	0.00000E+000	-1.50000E-001	2.63368E-005	6	..........a	-327.65
	1386	138.7	-1.40035E-001	2.17300E-008	0.00000E+000	-1.40000E-001	2.56369E-005	6	..........a	-327.65
	1387	138.8	-1.30042E-001	2.24014E-008	0.00000E+000	-1.30000E-001	2.67035E-005	6	..........a	-327.65
	1388	138.9	-1.19998E-001	2.30586E-008	0.00000E+000	-1.20000E-001	2.74702E-005	6	..........a	-327.65
	1389	139	-1.10029E-001	2.37099E-008	0.00000E+000	-1.10000E-001	2.57368E-005	6	..........a	-327.65
	1390	139.1	-1.00019E-001	2.43629E-008	0.00000E+000	-1.00000E-001	2.46035E-005	6	..........a	-327.65
	1391	139.2	-9.00224E-002	2.50425E-008	0.00000E+000	-9.00000E-002	2.56035E-005	6	..........a	-327.65
	1392	139.3	-8.00217E-002	2.57357E-008	0.00000E+000	-8.00000E-002	3.42702E-005	6	..........a	-327.65
	1393	139.4	-7.00125E-002	2.64493E-008	0.00000E+000	-7.00000E-002	2.76368E-005	6	..........a	-327.65
	1394	139.5	-6.00221E-002	2.71444E-008	0.00000E+000	-6.00000E-002	2.63368E-005	6	..........a	-327.65
	1395	139.6	-5.00551E-002	2.78863E-008	0.00000E+000	-5.00000E-002	2.32035E-005	6	..........a	-327.65
	1396	139.7	-4.00172E-002	2.86475E-008	0.00000E+000	-4.00000E-002	2.34368E-005	6	..........a	-327.65
	1397	139.8	-3.00526E-002	2.93940E-008	0.00000E+000	-3.00000E-002	2.25702E-005	6	..........a	-327.65
	1398	139.9	-1.99919E-002	3.01302E-008	0.00000E+000	-2.00000E-002	2.02702E-005	6	..........a	-327.65
	1399	140	-1.00465E-002	3.09400E-008	0.00000E+000	-1.00000E-002	2.09035E-005	6	..........a	-327.65
	1400	140.1	6.44042E-005	3.17518E-008	0.00000E+000	7.45058E-009	1.10657E-003	6	..........a	-327.65