File: Figure 1F/data/50M.DTA
EXPLAIN
TAG	CV
TITLE	LABEL	Cyclic Voltammetry	Test &Identifier
DATE	LABEL	8/25/2021	Date
TIME	LABEL	12:47:35	Time
NOTES	NOTES	1	&Notes...

PSTAT	PSTAT	REF600P-40007	Potentiostat
VINIT	POTEN	0.00000E+000	F	Initial &E (V)
VLIMIT1	POTEN	8.00000E-001	F	Scan Limit &1 (V)
VLIMIT2	POTEN	-6.00000E-001	F	Scan Limit &2 (V)
VFINAL	POTEN	0.00000E+000	F	Final &E (V)
SCANRATE	QUANT	9.99998E+001	&Scan Rate (mV/s)
STEPSIZE	QUANT	1.00000E+001	St&ep Size (mV)
CYCLES	IQUANT	5	C&ycles (#)
IMODE	SELECTOR	0	I/E Range &Mode
IRANGE	QUANT	3.00000E-001	&Max Current (mA)
AREA	QUANT	2.87000E-005	Electrode &Area (cm^2)
ELECTRODETYPE	SELECTOR	0	Electrode Type
STRIPPING	TOGGLE	F	Used for Stripping
POLARITY	TOGGLE	F	Signal Polarity
CONDIT	TWOPARAM	F	1.50000E+001	0.00000E+000	Conditionin&g	Time(s)	E(V)
DELAY	TWOPARAM	T	5.00000E+000	0.00000E+000	Init. De&lay	Time(s)	Stab.(mV/s)
EQDELAY	QUANT	5.00000E+000	Equil. &Time (s)
IRCOMP	SELECTOR	0	IRCom&p
PFCOR	QUANT	5.00000E+001	PF Corr. (ohm)
SAMPLINGMODE	SELECTOR	2	Sampling &Mode
OCVCURVE	TABLE	19
	Pt	T	Vf	Vm	Ach	Over	Temp
	#	s	V vs. Ref.	V	V	bits	deg C
	0	0.258333	2.40355E-001	2.40355E-001	1.19093E-003	..........a	-327.65
	1	0.516667	2.40361E-001	2.40714E-001	1.19380E-003	..........a	-327.65
	2	0.775	2.40393E-001	2.40512E-001	1.19047E-003	..........a	-327.65
	3	1.03333	2.40454E-001	2.40592E-001	1.18427E-003	..........a	-327.65
	4	1.29167	2.40528E-001	2.41171E-001	1.19067E-003	..........a	-327.65
	5	1.55	2.40634E-001	2.41495E-001	1.19093E-003	..........a	-327.65
	6	1.80833	2.40821E-001	2.41821E-001	1.19700E-003	..........a	-327.65
	7	2.06667	2.41096E-001	2.41889E-001	1.19733E-003	..........a	-327.65
	8	2.325	2.41406E-001	2.42365E-001	1.19726E-003	..........a	-327.65
	9	2.58333	2.41699E-001	2.42182E-001	1.19760E-003	..........a	-327.65
	10	2.84167	2.41942E-001	2.42203E-001	1.19686E-003	..........a	-327.65
	11	3.1	2.42113E-001	2.42439E-001	1.19773E-003	..........a	-327.65
	12	3.35833	2.42211E-001	2.42019E-001	1.19040E-003	..........a	-327.65
	13	3.61667	2.42242E-001	2.41882E-001	1.18933E-003	..........a	-327.65
	14	3.875	2.42200E-001	2.41819E-001	1.19380E-003	..........a	-327.65
	15	4.13333	2.42093E-001	2.41767E-001	1.18887E-003	..........a	-327.65
	16	4.39167	2.41966E-001	2.41739E-001	1.18847E-003	..........a	-327.65
	17	4.65	2.41861E-001	2.41724E-001	1.19453E-003	..........a	-327.65
	18	4.90833	2.41790E-001	2.41681E-001	1.18940E-003	..........a	-327.65
EOC	QUANT	0.2417904	Open Circuit (V)
PSTATMODEL	IQUANT	7	Pstat Model
PSTATSECTION	LABEL	REF600P-40007	Pstat Section
PSTATSERIALNO	LABEL	40007	Pstat Serial Number
CTRLMODE	IQUANT	1	Control Mode
ELECTROMETER	IQUANT	0	RE=0 or CS=1
IESTAB	IQUANT	2	I/E Stability
CASPEED	IQUANT	4	Control Amp Speed
CONVENTION	IQUANT	1	Current Convention
ICHRANGE	IQUANT	2	Ich Range
ICHRANGEMODE	TOGGLE	F	Ich Auto Range
ICHOFFSETENABLE	TOGGLE	F	Ich Offset Enable
ICHOFFSET	QUANT	0	Ich Offset (V)
ICHFILTER	IQUANT	2	Ich Filter
VCHRANGE	IQUANT	2	Vch Range
VCHRANGEMODE	TOGGLE	F	Vch Auto Range
VCHOFFSETENABLE	TOGGLE	F	Vch Offset Enable
VCHOFFSET	QUANT	0	Vch Offset (V)
VCHFILTER	IQUANT	2	Vch Filter
ACHRANGE	IQUANT	2	Ach Range
ACHOFFSETENABLE	TOGGLE	F	Ach Offset Enable
ACHOFFSET	QUANT	0	Ach Offset (V)
ACHFILTER	IQUANT	1	Ach Filter
IERANGELOWERLIMIT	IQUANT	1	I/E Range Lower Limit
IERANGEMODE	TOGGLE	T	I/E AutoRange
IERANGE	IQUANT	8	I/E Range
POSFEEDENABLE	TOGGLE	F	Positive Feedback IR Comp
POSFEEDRESISTANCE	QUANT	0	Positive Feedback Resistance (ohm)
ACHSELECT	IQUANT	0	Ach Select
SENSECABLEID	IQUANT	7	Sense Cable ID
PWRCABLEID	IQUANT	7	Power Cable ID
DCCALDATE	LABEL	8/25/2021	DC Calibration Date
ACCALDATE	LABEL	8/25/2021	AC Calibration Date
THERMOSELECT	IQUANT	1	Thermo Select
FRAMEWORKVERSION	LABEL	7.8.1	Framework Version
INSTRUMENTVERSION	LABEL	4.40	Instrument Version
CURVE1	TABLE
	Pt	T	Vf	Im	Vu	Sig	Ach	IERange	Over	Temp
	#	s	V vs. Ref.	A	V	V	V	#	bits	deg C
	0	0.1	3.18574E-005	-1.54837E-008	0.00000E+000	7.45058E-009	1.19553E-003	8	..........a	-327.65
	3	0.4	3.00063E-002	7.07497E-009	0.00000E+000	3.00000E-002	1.19080E-003	6	..........a	-327.65
	6	0.7	6.00035E-002	1.10864E-008	0.00000E+000	6.00000E-002	9.58318E-005	6	..........a	-327.65
	9	1	8.99924E-002	1.46027E-008	0.00000E+000	9.00000E-002	9.33652E-005	6	..........a	-327.65
	12	1.3	1.19987E-001	1.81071E-008	0.00000E+000	1.20000E-001	8.79318E-005	6	..........a	-327.65
	15	1.6	1.50017E-001	2.13010E-008	0.00000E+000	1.50000E-001	9.41652E-005	6	..........a	-327.65
	18	1.9	1.79996E-001	2.43365E-008	0.00000E+000	1.80000E-001	8.91985E-005	6	..........a	-327.65
	21	2.2	2.09986E-001	2.68431E-008	0.00000E+000	2.10000E-001	9.42318E-005	6	..........a	-327.65
	24	2.5	2.40002E-001	2.85157E-008	0.00000E+000	2.40000E-001	8.95318E-005	6	..........a	-327.65
	27	2.8	2.69977E-001	2.98167E-008	0.00000E+000	2.70000E-001	8.79318E-005	6	..........a	-327.65
	30	3.1	3.00008E-001	3.01740E-008	0.00000E+000	3.00000E-001	8.94318E-005	6	..........a	-327.65
	33	3.4	3.29985E-001	3.11801E-008	0.00000E+000	3.30000E-001	9.00652E-005	6	..........a	-327.65
	36	3.7	3.59971E-001	3.05130E-008	0.00000E+000	3.60000E-001	9.32318E-005	6	..........a	-327.65
	39	4	3.90021E-001	3.03238E-008	0.00000E+000	3.90000E-001	8.98985E-005	6	..........a	-327.65
	42	4.3	4.20071E-001	3.07500E-008	0.00000E+000	4.20000E-001	8.29652E-005	6	..........a	-327.65
	45	4.6	4.50022E-001	3.09111E-008	0.00000E+000	4.50000E-001	8.75652E-005	6	..........a	-327.65
	48	4.9	4.80059E-001	3.20486E-008	0.00000E+000	4.80000E-001	8.68652E-005	6	..........a	-327.65
	51	5.2	5.10056E-001	3.34110E-008	0.00000E+000	5.10000E-001	9.60318E-005	6	..........a	-327.65
	54	5.5	5.40061E-001	3.48986E-008	0.00000E+000	5.40000E-001	1.00465E-004	6	..........a	-327.65
	57	5.8	5.70051E-001	3.72470E-008	0.00000E+000	5.70000E-001	9.54318E-005	6	..........a	-327.65
	60	6.1	6.00072E-001	3.84764E-008	0.00000E+000	6.00000E-001	9.86651E-005	6	..........a	-327.65
	63	6.4	6.30064E-001	4.32080E-008	0.00000E+000	6.30000E-001	9.33318E-005	6	..........a	-327.65
	66	6.7	6.60104E-001	4.28664E-008	0.00000E+000	6.60000E-001	9.88985E-005	6	..........a	-327.65
	69	7	6.90046E-001	4.51945E-008	0.00000E+000	6.90000E-001	9.89985E-005	6	..........a	-327.65
	72	7.3	7.20044E-001	4.61995E-008	0.00000E+000	7.20000E-001	9.54652E-005	6	..........a	-327.65
	75	7.6	7.50074E-001	5.16781E-008	0.00000E+000	7.50000E-001	1.01499E-004	6	..........a	-327.65
	78	7.9	7.80073E-001	5.35055E-008	0.00000E+000	7.80000E-001	1.00132E-004	6	..........a	-327.65
	81	8.2	7.90106E-001	3.07478E-008	0.00000E+000	7.90000E-001	9.56652E-005	6	..........a	-327.65
	84	8.5	7.60136E-001	9.41635E-009	0.00000E+000	7.60000E-001	8.53652E-005	6	..........a	-327.65
	87	8.8	7.30060E-001	-1.72482E-009	0.00000E+000	7.30000E-001	8.75985E-005	6	..........a	-327.65
	90	9.1	7.00117E-001	-7.54070E-009	0.00000E+000	7.00000E-001	9.01318E-005	6	..........a	-327.65
	93	9.4	6.70095E-001	-1.18683E-008	0.00000E+000	6.70000E-001	9.41318E-005	6	..........a	-327.65
	96	9.7	6.40074E-001	-1.48901E-008	0.00000E+000	6.40000E-001	9.40652E-005	6	..........a	-327.65
	99	10	6.10079E-001	-1.65860E-008	0.00000E+000	6.10000E-001	8.99318E-005	6	..........a	-327.65
	102	10.3	5.80115E-001	-1.86043E-008	0.00000E+000	5.80000E-001	8.61985E-005	6	..........a	-327.65
	105	10.6	5.50124E-001	-1.92819E-008	0.00000E+000	5.50000E-001	8.93652E-005	6	..........a	-327.65
	108	10.9	5.20081E-001	-1.83934E-008	0.00000E+000	5.20000E-001	9.66652E-005	6	..........a	-327.65
	111	11.2	4.90090E-001	-2.03728E-008	0.00000E+000	4.90000E-001	9.26318E-005	6	..........a	-327.65
	114	11.5	4.60115E-001	-2.11215E-008	0.00000E+000	4.60000E-001	8.82652E-005	6	..........a	-327.65
	117	11.8	4.30069E-001	-2.11929E-008	0.00000E+000	4.30000E-001	9.50652E-005	6	..........a	-327.65
	120	12.1	4.00033E-001	-2.19454E-008	0.00000E+000	4.00000E-001	9.20652E-005	6	..........a	-327.65
	123	12.4	3.70035E-001	-2.15882E-008	0.00000E+000	3.70000E-001	8.43985E-005	6	..........a	-327.65
	126	12.7	3.40055E-001	-2.19782E-008	0.00000E+000	3.40000E-001	8.37985E-005	6	..........a	-327.65
	129	13	3.10040E-001	-2.20181E-008	0.00000E+000	3.10000E-001	8.30652E-005	6	..........a	-327.65
	132	13.3	2.80027E-001	-2.23618E-008	0.00000E+000	2.80000E-001	8.63652E-005	6	..........a	-327.65
	135	13.6	2.50046E-001	-2.23650E-008	0.00000E+000	2.50000E-001	8.95318E-005	6	..........a	-327.65
	138	13.9	2.20018E-001	-2.31658E-008	0.00000E+000	2.20000E-001	9.39652E-005	6	..........a	-327.65
	141	14.2	1.90063E-001	-2.36147E-008	0.00000E+000	1.90000E-001	8.89652E-005	6	..........a	-327.65
	144	14.5	1.60027E-001	-2.47380E-008	0.00000E+000	1.60000E-001	8.56652E-005	6	..........a	-327.65
	147	14.8	1.30019E-001	-2.60337E-008	0.00000E+000	1.30000E-001	9.21652E-005	6	..........a	-327.65
	150	15.1	1.00048E-001	-2.71627E-008	0.00000E+000	1.00000E-001	8.82985E-005	6	..........a	-327.65
	153	15.4	7.00498E-002	-2.87904E-008	0.00000E+000	7.00000E-002	8.49985E-005	6	..........a	-327.65
	156	15.7	4.00157E-002	-3.00903E-008	0.00000E+000	4.00000E-002	8.58318E-005	6	..........a	-327.65
	159	16	1.00465E-002	-3.14748E-008	0.00000E+000	1.00000E-002	8.24652E-005	6	..........a	-327.65
	162	16.3	-2.00648E-002	-3.19005E-008	0.00000E+000	-2.00000E-002	8.86318E-005	6	..........a	-327.65
	165	16.6	-5.00648E-002	-3.52029E-008	0.00000E+000	-5.00000E-002	8.47318E-005	6	..........a	-327.65
	168	16.9	-8.00885E-002	-3.36691E-008	0.00000E+000	-8.00000E-002	8.93318E-005	6	..........a	-327.65
	171	17.2	-1.09994E-001	-3.77489E-008	0.00000E+000	-1.10000E-001	9.33318E-005	6	..........a	-327.65
	174	17.5	-1.40092E-001	-3.82123E-008	0.00000E+000	-1.40000E-001	9.27318E-005	6	..........a	-327.65
	177	17.8	-1.70017E-001	-4.00402E-008	0.00000E+000	-1.70000E-001	9.07985E-005	6	..........a	-327.65
	180	18.1	-2.00068E-001	-4.04353E-008	0.00000E+000	-2.00000E-001	9.66318E-005	6	..........a	-327.65
	183	18.4	-2.30045E-001	-3.84111E-008	0.00000E+000	-2.30000E-001	9.50318E-005	6	..........a	-327.65
	186	18.7	-2.60056E-001	-4.16887E-008	0.00000E+000	-2.60000E-001	9.62985E-005	6	..........a	-327.65
	189	19	-2.90012E-001	-4.33107E-008	0.00000E+000	-2.90000E-001	9.57652E-005	6	..........a	-327.65
	192	19.3	-3.20053E-001	-4.67650E-008	0.00000E+000	-3.20000E-001	1.03398E-004	6	..........a	-327.65
	195	19.6	-3.50054E-001	-5.12366E-008	0.00000E+000	-3.50000E-001	1.12065E-004	6	..........a	-327.65
	198	19.9	-3.80067E-001	-5.62369E-008	0.00000E+000	-3.80000E-001	1.09698E-004	6	..........a	-327.65
	201	20.2	-4.10110E-001	-6.12318E-008	0.00000E+000	-4.10000E-001	1.08932E-004	6	..........a	-327.65
	204	20.5	-4.40151E-001	-6.54201E-008	0.00000E+000	-4.40000E-001	1.07632E-004	6	..........a	-327.65
	207	20.8	-4.70092E-001	-7.01582E-008	0.00000E+000	-4.70000E-001	1.01699E-004	6	..........a	-327.65
	210	21.1	-5.00154E-001	-7.40610E-008	0.00000E+000	-5.00000E-001	1.03499E-004	6	..........a	-327.65
	213	21.4	-5.30109E-001	-8.03484E-008	0.00000E+000	-5.30000E-001	9.36985E-005	6	..........a	-327.65
	216	21.7	-5.60161E-001	-8.13574E-008	0.00000E+000	-5.60000E-001	9.58985E-005	6	..........a	-327.65
	219	22	-5.90143E-001	-8.39185E-008	0.00000E+000	-5.90000E-001	9.39985E-005	6	..........a	-327.65
	220	22.1	-6.00197E-001	-8.47463E-008	0.00000E+000	-6.00000E-001	9.22652E-005	6	..........a	-327.65
CURVE2	TABLE
	Pt	T	Vf	Im	Vu	Sig	Ach	IERange	Over	Temp
	#	s	V vs. Ref.	A	V	V	V	#	bits	deg C
	221	22.2	-5.90172E-001	-5.92118E-008	0.00000E+000	-5.90000E-001	1.07532E-004	6	..........a	-327.65
	224	22.5	-5.60188E-001	-4.07132E-008	0.00000E+000	-5.60000E-001	1.03665E-004	6	..........a	-327.65
	227	22.8	-5.30159E-001	-2.98987E-008	0.00000E+000	-5.30000E-001	1.02065E-004	6	..........a	-327.65
	230	23.1	-5.00207E-001	-2.49444E-008	0.00000E+000	-5.00000E-001	9.12652E-005	6	..........a	-327.65
	233	23.4	-4.70153E-001	-1.90634E-008	0.00000E+000	-4.70000E-001	9.54652E-005	6	..........a	-327.65
	236	23.7	-4.40225E-001	-1.57875E-008	0.00000E+000	-4.40000E-001	9.71985E-005	6	..........a	-327.65
	239	24	-4.10167E-001	-1.24109E-008	0.00000E+000	-4.10000E-001	9.77985E-005	6	..........a	-327.65
	242	24.3	-3.80139E-001	-1.05680E-008	0.00000E+000	-3.80000E-001	9.54318E-005	6	..........a	-327.65
	245	24.6	-3.50130E-001	-8.04104E-009	0.00000E+000	-3.50000E-001	9.82652E-005	6	..........a	-327.65
	248	24.9	-3.20119E-001	-8.13624E-009	0.00000E+000	-3.20000E-001	9.64318E-005	6	..........a	-327.65
	251	25.2	-2.90089E-001	-4.18788E-009	0.00000E+000	-2.90000E-001	1.00098E-004	6	..........a	-327.65
	254	25.5	-2.60124E-001	-1.92174E-009	0.00000E+000	-2.60000E-001	1.01699E-004	6	..........a	-327.65
	257	25.8	-2.30109E-001	-1.86335E-010	0.00000E+000	-2.30000E-001	1.05099E-004	6	..........a	-327.65
	260	26.1	-2.00133E-001	2.94122E-009	0.00000E+000	-2.00000E-001	9.93652E-005	6	..........a	-327.65
	263	26.4	-1.70076E-001	5.48530E-009	0.00000E+000	-1.70000E-001	1.02365E-004	6	..........a	-327.65
	266	26.7	-1.40157E-001	8.30386E-009	0.00000E+000	-1.40000E-001	9.88985E-005	6	..........a	-327.65
	269	27	-1.10039E-001	9.11670E-009	0.00000E+000	-1.10000E-001	9.73652E-005	6	..........a	-327.65
	272	27.3	-8.01336E-002	1.39016E-008	0.00000E+000	-8.00000E-002	9.63985E-005	6	..........a	-327.65
	275	27.6	-5.01085E-002	1.55884E-008	0.00000E+000	-5.00000E-002	8.85652E-005	6	..........a	-327.65
	278	27.9	-2.01141E-002	1.88674E-008	0.00000E+000	-2.00000E-002	1.00232E-004	6	..........a	-327.65
	281	28.2	1.00065E-002	2.18307E-008	0.00000E+000	1.00000E-002	8.73318E-005	6	..........a	-327.65
	284	28.5	3.99779E-002	2.37418E-008	0.00000E+000	4.00000E-002	8.86318E-005	6	..........a	-327.65
	287	28.8	7.00045E-002	2.74724E-008	0.00000E+000	7.00000E-002	8.28318E-005	6	..........a	-327.65
	290	29.1	1.00004E-001	3.50778E-008	0.00000E+000	1.00000E-001	8.86318E-005	6	..........a	-327.65
	293	29.4	1.29987E-001	3.75016E-008	0.00000E+000	1.30000E-001	9.27985E-005	6	..........a	-327.65
	296	29.7	1.59989E-001	4.34344E-008	0.00000E+000	1.60000E-001	8.87985E-005	6	..........a	-327.65
	299	30	1.90024E-001	4.89127E-008	0.00000E+000	1.90000E-001	9.11318E-005	6	..........a	-327.65
	302	30.3	2.19980E-001	5.00825E-008	0.00000E+000	2.20000E-001	9.43318E-005	6	..........a	-327.65
	305	30.6	2.50011E-001	5.63419E-008	0.00000E+000	2.50000E-001	9.48652E-005	6	..........a	-327.65
	308	30.9	2.79986E-001	5.73307E-008	0.00000E+000	2.80000E-001	9.22318E-005	6	..........a	-327.65
	311	31.2	3.10011E-001	5.90945E-008	0.00000E+000	3.10000E-001	9.48318E-005	6	..........a	-327.65
	314	31.5	3.40024E-001	6.22230E-008	0.00000E+000	3.40000E-001	9.16985E-005	6	..........a	-327.65
	317	31.8	3.69997E-001	6.28927E-008	0.00000E+000	3.70000E-001	9.94651E-005	6	..........a	-327.65
	320	32.1	4.00009E-001	6.11885E-008	0.00000E+000	4.00000E-001	9.18985E-005	6	..........a	-327.65
	323	32.4	4.30039E-001	5.95489E-008	0.00000E+000	4.30000E-001	9.68985E-005	6	..........a	-327.65
	326	32.7	4.60077E-001	5.68187E-008	0.00000E+000	4.60000E-001	1.04265E-004	6	..........a	-327.65
	329	33	4.90055E-001	5.17169E-008	0.00000E+000	4.90000E-001	9.76985E-005	6	..........a	-327.65
	332	33.3	5.20042E-001	5.26562E-008	0.00000E+000	5.20000E-001	9.31652E-005	6	..........a	-327.65
	335	33.6	5.50084E-001	5.49179E-008	0.00000E+000	5.50000E-001	9.29318E-005	6	..........a	-327.65
	338	33.9	5.80072E-001	5.10452E-008	0.00000E+000	5.80000E-001	9.47318E-005	6	..........a	-327.65
	341	34.2	6.10044E-001	5.13815E-008	0.00000E+000	6.10000E-001	9.60985E-005	6	..........a	-327.65
	344	34.5	6.40040E-001	5.47575E-008	0.00000E+000	6.40000E-001	9.68985E-005	6	..........a	-327.65
	347	34.8	6.70055E-001	5.75374E-008	0.00000E+000	6.70000E-001	9.97318E-005	6	..........a	-327.65
	350	35.1	7.00079E-001	6.11436E-008	0.00000E+000	7.00000E-001	9.39652E-005	6	..........a	-327.65
	353	35.4	7.30016E-001	5.93630E-008	0.00000E+000	7.30000E-001	9.48652E-005	6	..........a	-327.65
	356	35.7	7.60099E-001	6.02264E-008	0.00000E+000	7.60000E-001	9.75985E-005	6	..........a	-327.65
	359	36	7.90066E-001	6.46130E-008	0.00000E+000	7.90000E-001	9.88652E-005	6	..........a	-327.65
	362	36.3	7.80101E-001	2.86612E-008	0.00000E+000	7.80000E-001	9.59652E-005	6	..........a	-327.65
	365	36.6	7.50102E-001	7.19767E-009	0.00000E+000	7.50000E-001	9.91985E-005	6	..........a	-327.65
	368	36.9	7.20073E-001	-2.44967E-009	0.00000E+000	7.20000E-001	8.66985E-005	6	..........a	-327.65
	371	37.2	6.90062E-001	-8.22827E-009	0.00000E+000	6.90000E-001	8.93652E-005	6	..........a	-327.65
	374	37.5	6.60122E-001	-1.20983E-008	0.00000E+000	6.60000E-001	9.42318E-005	6	..........a	-327.65
	377	37.8	6.30103E-001	-1.34498E-008	0.00000E+000	6.30000E-001	8.98652E-005	6	..........a	-327.65
	380	38.1	6.00102E-001	-1.53300E-008	0.00000E+000	6.00000E-001	9.16652E-005	6	..........a	-327.65
	383	38.4	5.70081E-001	-1.90316E-008	0.00000E+000	5.70000E-001	9.45652E-005	6	..........a	-327.65
	386	38.7	5.40084E-001	-1.92097E-008	0.00000E+000	5.40000E-001	9.45318E-005	6	..........a	-327.65
	389	39	5.10087E-001	-1.77812E-008	0.00000E+000	5.10000E-001	9.40985E-005	6	..........a	-327.65
	392	39.3	4.80088E-001	-2.01838E-008	0.00000E+000	4.80000E-001	9.23985E-005	6	..........a	-327.65
	395	39.6	4.50055E-001	-2.06088E-008	0.00000E+000	4.50000E-001	9.20652E-005	6	..........a	-327.65
	398	39.9	4.20105E-001	-2.14715E-008	0.00000E+000	4.20000E-001	8.40652E-005	6	..........a	-327.65
	401	40.2	3.90062E-001	-2.24137E-008	0.00000E+000	3.90000E-001	8.87652E-005	6	..........a	-327.65
	404	40.5	3.60009E-001	-2.31860E-008	0.00000E+000	3.60000E-001	8.92985E-005	6	..........a	-327.65
[...]
	1271	127.2	9.00324E-002	-2.88607E-008	0.00000E+000	9.00000E-002	9.72318E-005	6	..........a	-327.65
	1274	127.5	6.00443E-002	-3.02476E-008	0.00000E+000	6.00000E-002	1.02132E-004	6	..........a	-327.65
	1277	127.8	3.00488E-002	-3.05380E-008	0.00000E+000	3.00000E-002	1.04999E-004	6	..........a	-327.65
	1280	128.1	-7.87854E-005	-3.26349E-008	0.00000E+000	7.45058E-009	9.69652E-005	6	..........a	-327.65
	1283	128.4	-3.00536E-002	-3.67138E-008	0.00000E+000	-3.00000E-002	9.47652E-005	6	..........a	-327.65
	1286	128.7	-6.00785E-002	-3.60414E-008	0.00000E+000	-6.00000E-002	9.97318E-005	6	..........a	-327.65
	1289	129	-9.00524E-002	-3.67895E-008	0.00000E+000	-9.00000E-002	9.80985E-005	6	..........a	-327.65
	1292	129.3	-1.20063E-001	-3.47531E-008	0.00000E+000	-1.20000E-001	8.93985E-005	6	..........a	-327.65
	1295	129.6	-1.50055E-001	-4.04523E-008	0.00000E+000	-1.50000E-001	1.05265E-004	6	..........a	-327.65
	1298	129.9	-1.80070E-001	-4.59297E-008	0.00000E+000	-1.80000E-001	1.07732E-004	6	..........a	-327.65
	1301	130.2	-2.10009E-001	-4.65568E-008	0.00000E+000	-2.10000E-001	1.08332E-004	6	..........a	-327.65
	1304	130.5	-2.40033E-001	-4.64822E-008	0.00000E+000	-2.40000E-001	1.04398E-004	6	..........a	-327.65
	1307	130.8	-2.70033E-001	-4.85389E-008	0.00000E+000	-2.70000E-001	1.06765E-004	6	..........a	-327.65
	1310	131.1	-3.00070E-001	-4.94456E-008	0.00000E+000	-3.00000E-001	1.14265E-004	6	..........a	-327.65
	1313	131.4	-3.30041E-001	-5.38581E-008	0.00000E+000	-3.30000E-001	1.15932E-004	6	..........a	-327.65
	1316	131.7	-3.60062E-001	-5.29405E-008	0.00000E+000	-3.60000E-001	1.16065E-004	6	..........a	-327.65
	1319	132	-3.90043E-001	-5.88164E-008	0.00000E+000	-3.90000E-001	1.13532E-004	6	..........a	-327.65
	1322	132.3	-4.20161E-001	-6.42339E-008	0.00000E+000	-4.20000E-001	1.17532E-004	6	..........a	-327.65
	1325	132.6	-4.50130E-001	-6.87493E-008	0.00000E+000	-4.50000E-001	1.11098E-004	6	..........a	-327.65
	1328	132.9	-4.80150E-001	-7.53362E-008	0.00000E+000	-4.80000E-001	1.07065E-004	6	..........a	-327.65
	1331	133.2	-5.10150E-001	-7.73779E-008	0.00000E+000	-5.10000E-001	1.13432E-004	6	..........a	-327.65
	1334	133.5	-5.40157E-001	-8.18738E-008	0.00000E+000	-5.40000E-001	1.02032E-004	6	..........a	-327.65
	1337	133.8	-5.70101E-001	-8.85358E-008	0.00000E+000	-5.70000E-001	1.13199E-004	6	..........a	-327.65
	1340	134.1	-6.00186E-001	-8.77910E-008	0.00000E+000	-6.00000E-001	1.19723E-003	6	..........a	-327.65
CURVE6	TABLE
	Pt	T	Vf	Im	Vu	Sig	Ach	IERange	Over	Temp
	#	s	V vs. Ref.	A	V	V	V	#	bits	deg C
	1341	134.2	-5.90174E-001	-6.54407E-008	0.00000E+000	-5.90000E-001	1.08432E-004	6	..........a	-327.65
	1342	134.3	-5.80169E-001	-5.79318E-008	0.00000E+000	-5.80000E-001	1.11998E-004	6	..........a	-327.65
	1343	134.4	-5.70135E-001	-4.66222E-008	0.00000E+000	-5.70000E-001	1.16799E-004	6	..........a	-327.65
	1344	134.5	-5.60190E-001	-4.10504E-008	0.00000E+000	-5.60000E-001	1.16032E-004	6	..........a	-327.65
	1345	134.6	-5.50148E-001	-3.72172E-008	0.00000E+000	-5.50000E-001	1.12065E-004	6	..........a	-327.65
	1346	134.7	-5.40197E-001	-3.22582E-008	0.00000E+000	-5.40000E-001	1.06365E-004	6	..........a	-327.65
	1347	134.8	-5.30150E-001	-2.98644E-008	0.00000E+000	-5.30000E-001	1.01865E-004	6	..........a	-327.65
	1348	134.9	-5.20145E-001	-2.66914E-008	0.00000E+000	-5.20000E-001	1.08132E-004	6	..........a	-327.65
	1349	135	-5.10207E-001	-2.56219E-008	0.00000E+000	-5.10000E-001	1.00398E-004	6	..........a	-327.65
	1350	135.1	-5.00203E-001	-2.24502E-008	0.00000E+000	-5.00000E-001	9.80985E-005	6	..........a	-327.65
	1351	135.2	-4.90179E-001	-2.02614E-008	0.00000E+000	-4.90000E-001	1.01799E-004	6	..........a	-327.65
	1352	135.3	-4.80199E-001	-1.81083E-008	0.00000E+000	-4.80000E-001	1.03199E-004	6	..........a	-327.65
	1353	135.4	-4.70144E-001	-1.66921E-008	0.00000E+000	-4.70000E-001	1.01665E-004	6	..........a	-327.65
	1354	135.5	-4.60241E-001	-1.45088E-008	0.00000E+000	-4.60000E-001	1.00932E-004	6	..........a	-327.65
	1355	135.6	-4.50180E-001	-1.31866E-008	0.00000E+000	-4.50000E-001	1.04065E-004	6	..........a	-327.65
	1356	135.7	-4.40218E-001	-1.25485E-008	0.00000E+000	-4.40000E-001	1.04065E-004	6	..........a	-327.65
	1357	135.8	-4.30187E-001	-1.17745E-008	0.00000E+000	-4.30000E-001	1.03332E-004	6	..........a	-327.65
	1358	135.9	-4.20235E-001	-1.00313E-008	0.00000E+000	-4.20000E-001	1.02298E-004	6	..........a	-327.65
	1359	136	-4.10166E-001	-9.73984E-009	0.00000E+000	-4.10000E-001	9.95985E-005	6	..........a	-327.65
	1360	136.1	-4.00136E-001	-8.54496E-009	0.00000E+000	-4.00000E-001	9.73985E-005	6	..........a	-327.65
	1361	136.2	-3.90117E-001	-8.13264E-009	0.00000E+000	-3.90000E-001	1.07665E-004	6	..........a	-327.65
	1362	136.3	-3.80129E-001	-7.20873E-009	0.00000E+000	-3.80000E-001	1.05998E-004	6	..........a	-327.65
	1363	136.4	-3.70103E-001	-6.71782E-009	0.00000E+000	-3.70000E-001	9.55985E-005	6	..........a	-327.65
	1364	136.5	-3.60125E-001	-6.10994E-009	0.00000E+000	-3.60000E-001	9.45985E-005	6	..........a	-327.65
	1365	136.6	-3.50129E-001	-4.99185E-009	0.00000E+000	-3.50000E-001	1.02098E-004	6	..........a	-327.65
	1366	136.7	-3.40150E-001	-4.14586E-009	0.00000E+000	-3.40000E-001	9.94985E-005	6	..........a	-327.65
	1367	136.8	-3.30099E-001	-3.21876E-009	0.00000E+000	-3.30000E-001	1.00832E-004	6	..........a	-327.65
	1368	136.9	-3.20117E-001	-2.62022E-009	0.00000E+000	-3.20000E-001	1.00632E-004	6	..........a	-327.65
	1369	137	-3.10097E-001	-2.02211E-009	0.00000E+000	-3.10000E-001	9.80985E-005	6	..........a	-327.65
	1370	137.1	-3.00126E-001	-1.91588E-009	0.00000E+000	-3.00000E-001	9.91652E-005	6	..........a	-327.65
	1371	137.2	-2.90070E-001	-7.47099E-010	0.00000E+000	-2.90000E-001	9.51652E-005	6	..........a	-327.65
	1372	137.3	-2.80128E-001	5.00267E-010	0.00000E+000	-2.80000E-001	9.82652E-005	6	..........a	-327.65
	1373	137.4	-2.70095E-001	1.47129E-009	0.00000E+000	-2.70000E-001	9.81985E-005	6	..........a	-327.65
	1374	137.5	-2.60120E-001	2.32097E-009	0.00000E+000	-2.60000E-001	1.05265E-004	6	..........a	-327.65
	1375	137.6	-2.50092E-001	3.13454E-009	0.00000E+000	-2.50000E-001	1.03932E-004	6	..........a	-327.65
	1376	137.7	-2.40116E-001	3.89747E-009	0.00000E+000	-2.40000E-001	1.03398E-004	6	..........a	-327.65
	1377	137.8	-2.30104E-001	4.67860E-009	0.00000E+000	-2.30000E-001	1.02799E-004	6	..........a	-327.65
	1378	137.9	-2.20099E-001	5.43842E-009	0.00000E+000	-2.20000E-001	9.98652E-005	6	..........a	-327.65
	1379	138	-2.10060E-001	6.17624E-009	0.00000E+000	-2.10000E-001	1.07332E-004	6	..........a	-327.65
	1380	138.1	-2.00116E-001	6.86817E-009	0.00000E+000	-2.00000E-001	1.02932E-004	6	..........a	-327.65
	1381	138.2	-1.90117E-001	7.67211E-009	0.00000E+000	-1.90000E-001	1.02098E-004	6	..........a	-327.65
	1382	138.3	-1.80121E-001	8.43310E-009	0.00000E+000	-1.80000E-001	1.08832E-004	6	..........a	-327.65
	1383	138.4	-1.70071E-001	8.99486E-009	0.00000E+000	-1.70000E-001	1.02532E-004	6	..........a	-327.65
	1384	138.5	-1.60093E-001	9.68547E-009	0.00000E+000	-1.60000E-001	1.01932E-004	6	..........a	-327.65
	1385	138.6	-1.50114E-001	1.00982E-008	0.00000E+000	-1.50000E-001	1.00732E-004	6	..........a	-327.65
	1386	138.7	-1.40143E-001	1.11900E-008	0.00000E+000	-1.40000E-001	1.01298E-004	6	..........a	-327.65
	1387	138.8	-1.30079E-001	1.15825E-008	0.00000E+000	-1.30000E-001	9.83318E-005	6	..........a	-327.65
	1388	138.9	-1.20104E-001	1.22444E-008	0.00000E+000	-1.20000E-001	9.58985E-005	6	..........a	-327.65
	1389	139	-1.10042E-001	1.24559E-008	0.00000E+000	-1.10000E-001	1.00165E-004	6	..........a	-327.65
	1390	139.1	-1.00135E-001	1.31913E-008	0.00000E+000	-1.00000E-001	1.04665E-004	6	..........a	-327.65
	1391	139.2	-9.00956E-002	1.42843E-008	0.00000E+000	-9.00000E-002	9.95652E-005	6	..........a	-327.65
	1392	139.3	-8.01226E-002	1.47069E-008	0.00000E+000	-8.00000E-002	9.93652E-005	6	..........a	-327.65
	1393	139.4	-7.01020E-002	1.53502E-008	0.00000E+000	-7.00000E-002	1.03099E-004	6	..........a	-327.65
	1394	139.5	-6.01192E-002	1.59997E-008	0.00000E+000	-6.00000E-002	1.04965E-004	6	..........a	-327.65
	1395	139.6	-5.01036E-002	1.66048E-008	0.00000E+000	-5.00000E-002	9.92652E-005	6	..........a	-327.65
	1396	139.7	-4.01147E-002	1.72287E-008	0.00000E+000	-4.00000E-002	1.05198E-004	6	..........a	-327.65
	1397	139.8	-3.01076E-002	1.86752E-008	0.00000E+000	-3.00000E-002	1.11332E-004	6	..........a	-327.65
	1398	139.9	-2.01077E-002	1.94190E-008	0.00000E+000	-2.00000E-002	1.05365E-004	6	..........a	-327.65
	1399	140	-1.00851E-002	2.04148E-008	0.00000E+000	-1.00000E-002	1.06665E-004	6	..........a	-327.65
	1400	140.1	-1.17692E-004	2.26889E-008	0.00000E+000	7.45058E-009	9.92985E-005	6	..........a	-327.65