File: Figure 1F/data/5M.DTA
EXPLAIN
TAG	CV
TITLE	LABEL	Cyclic Voltammetry	Test &Identifier
DATE	LABEL	8/23/2021	Date
TIME	LABEL	17:16:21	Time
NOTES	NOTES	1	&Notes...

PSTAT	PSTAT	REF600P-40007	Potentiostat
VINIT	POTEN	0.00000E+000	F	Initial &E (V)
VLIMIT1	POTEN	8.00000E-001	F	Scan Limit &1 (V)
VLIMIT2	POTEN	-6.00000E-001	F	Scan Limit &2 (V)
VFINAL	POTEN	0.00000E+000	F	Final &E (V)
SCANRATE	QUANT	9.99998E+001	&Scan Rate (mV/s)
STEPSIZE	QUANT	1.00000E+001	St&ep Size (mV)
CYCLES	IQUANT	5	C&ycles (#)
IMODE	SELECTOR	0	I/E Range &Mode
IRANGE	QUANT	3.00000E-001	&Max Current (mA)
AREA	QUANT	2.87000E-005	Electrode &Area (cm^2)
ELECTRODETYPE	SELECTOR	0	Electrode Type
STRIPPING	TOGGLE	F	Used for Stripping
POLARITY	TOGGLE	F	Signal Polarity
CONDIT	TWOPARAM	F	1.50000E+001	0.00000E+000	Conditionin&g	Time(s)	E(V)
DELAY	TWOPARAM	T	5.00000E+000	0.00000E+000	Init. De&lay	Time(s)	Stab.(mV/s)
EQDELAY	QUANT	5.00000E+000	Equil. &Time (s)
IRCOMP	SELECTOR	0	IRCom&p
PFCOR	QUANT	5.00000E+001	PF Corr. (ohm)
SAMPLINGMODE	SELECTOR	2	Sampling &Mode
OCVCURVE	TABLE	19
	Pt	T	Vf	Vm	Ach	Over	Temp
	#	s	V vs. Ref.	V	V	bits	deg C
	0	0.258333	7.71830E-002	7.71830E-002	1.15847E-003	..........a	-327.65
	1	0.516667	7.71954E-002	7.78283E-002	1.15334E-003	..........a	-327.65
	2	0.775	7.72716E-002	7.84678E-002	1.15194E-003	..........a	-327.65
	3	1.03333	7.74891E-002	7.90870E-002	1.15174E-003	..........a	-327.65
	4	1.29167	7.78806E-002	7.95983E-002	1.15874E-003	..........a	-327.65
	5	1.55	7.84022E-002	8.02496E-002	1.16180E-003	..........a	-327.65
	6	1.80833	7.89867E-002	8.09561E-002	1.15867E-003	..........a	-327.65
	7	2.06667	7.95976E-002	8.15072E-002	1.15014E-003	..........a	-327.65
	8	2.325	8.02214E-002	8.20739E-002	1.15314E-003	..........a	-327.65
	9	2.58333	8.08416E-002	8.26154E-002	1.15367E-003	..........a	-327.65
	10	2.84167	8.14411E-002	8.31543E-002	1.15627E-003	..........a	-327.65
	11	3.1	8.20154E-002	8.36931E-002	1.14554E-003	..........a	-327.65
	12	3.35833	8.25699E-002	8.42183E-002	1.15140E-003	..........a	-327.65
	13	3.61667	8.31118E-002	8.47370E-002	1.15167E-003	..........a	-327.65
	14	3.875	8.36453E-002	8.52426E-002	1.15174E-003	..........a	-327.65
	15	4.13333	8.41711E-002	8.57443E-002	1.15047E-003	..........a	-327.65
	16	4.39167	8.46889E-002	8.62411E-002	1.15520E-003	..........a	-327.65
	17	4.65	8.51989E-002	8.67371E-002	1.15940E-003	..........a	-327.65
	18	4.90833	8.57024E-002	8.72267E-002	1.15454E-003	..........a	-327.65
EOC	QUANT	0.0857024	Open Circuit (V)
PSTATMODEL	IQUANT	7	Pstat Model
PSTATSECTION	LABEL	REF600P-40007	Pstat Section
PSTATSERIALNO	LABEL	40007	Pstat Serial Number
CTRLMODE	IQUANT	1	Control Mode
ELECTROMETER	IQUANT	0	RE=0 or CS=1
IESTAB	IQUANT	2	I/E Stability
CASPEED	IQUANT	4	Control Amp Speed
CONVENTION	IQUANT	1	Current Convention
ICHRANGE	IQUANT	2	Ich Range
ICHRANGEMODE	TOGGLE	F	Ich Auto Range
ICHOFFSETENABLE	TOGGLE	F	Ich Offset Enable
ICHOFFSET	QUANT	0	Ich Offset (V)
ICHFILTER	IQUANT	2	Ich Filter
VCHRANGE	IQUANT	2	Vch Range
VCHRANGEMODE	TOGGLE	F	Vch Auto Range
VCHOFFSETENABLE	TOGGLE	F	Vch Offset Enable
VCHOFFSET	QUANT	0	Vch Offset (V)
VCHFILTER	IQUANT	2	Vch Filter
ACHRANGE	IQUANT	2	Ach Range
ACHOFFSETENABLE	TOGGLE	F	Ach Offset Enable
ACHOFFSET	QUANT	0	Ach Offset (V)
ACHFILTER	IQUANT	1	Ach Filter
IERANGELOWERLIMIT	IQUANT	1	I/E Range Lower Limit
IERANGEMODE	TOGGLE	T	I/E AutoRange
IERANGE	IQUANT	8	I/E Range
POSFEEDENABLE	TOGGLE	F	Positive Feedback IR Comp
POSFEEDRESISTANCE	QUANT	0	Positive Feedback Resistance (ohm)
ACHSELECT	IQUANT	0	Ach Select
SENSECABLEID	IQUANT	7	Sense Cable ID
PWRCABLEID	IQUANT	7	Power Cable ID
DCCALDATE	LABEL	8/21/2021	DC Calibration Date
ACCALDATE	LABEL	8/21/2021	AC Calibration Date
THERMOSELECT	IQUANT	1	Thermo Select
FRAMEWORKVERSION	LABEL	7.8.1	Framework Version
INSTRUMENTVERSION	LABEL	4.40	Instrument Version
CURVE1	TABLE
	Pt	T	Vf	Im	Vu	Sig	Ach	IERange	Over	Temp
	#	s	V vs. Ref.	A	V	V	V	#	bits	deg C
	0	0.1	6.81365E-005	1.76959E-007	0.00000E+000	7.45058E-009	1.12920E-003	8	..........a	-327.65
	3	0.4	3.00871E-002	1.08203E-008	0.00000E+000	3.00000E-002	1.14147E-003	6	..........a	-327.65
	6	0.7	6.01102E-002	1.36701E-008	0.00000E+000	6.00000E-002	3.89702E-005	6	..........a	-327.65
	9	1	9.00379E-002	1.64483E-008	0.00000E+000	9.00000E-002	3.70035E-005	6	..........a	-327.65
	12	1.3	1.20069E-001	1.94669E-008	0.00000E+000	1.20000E-001	3.89702E-005	6	..........a	-327.65
	15	1.6	1.50086E-001	2.27183E-008	0.00000E+000	1.50000E-001	3.41369E-005	6	..........a	-327.65
	18	1.9	1.80078E-001	2.62417E-008	0.00000E+000	1.80000E-001	4.20035E-005	6	..........a	-327.65
	21	2.2	2.10072E-001	2.95635E-008	0.00000E+000	2.10000E-001	3.75368E-005	6	..........a	-327.65
	24	2.5	2.40092E-001	3.25121E-008	0.00000E+000	2.40000E-001	3.87368E-005	6	..........a	-327.65
	27	2.8	2.70027E-001	3.49949E-008	0.00000E+000	2.70000E-001	4.11035E-005	6	..........a	-327.65
	30	3.1	3.00112E-001	3.70737E-008	0.00000E+000	3.00000E-001	4.52035E-005	6	..........a	-327.65
	33	3.4	3.30068E-001	3.89098E-008	0.00000E+000	3.30000E-001	4.77369E-005	6	..........a	-327.65
	36	3.7	3.60052E-001	4.08195E-008	0.00000E+000	3.60000E-001	4.44035E-005	6	..........a	-327.65
	39	4	3.90076E-001	4.27722E-008	0.00000E+000	3.90000E-001	4.64702E-005	6	..........a	-327.65
	42	4.3	4.20153E-001	4.50222E-008	0.00000E+000	4.20000E-001	4.56702E-005	6	..........a	-327.65
	45	4.6	4.50125E-001	4.74557E-008	0.00000E+000	4.50000E-001	4.74702E-005	6	..........a	-327.65
	48	4.9	4.80125E-001	5.00164E-008	0.00000E+000	4.80000E-001	4.57702E-005	6	..........a	-327.65
	51	5.2	5.10127E-001	5.25370E-008	0.00000E+000	5.10000E-001	4.83702E-005	6	..........a	-327.65
	54	5.5	5.40153E-001	5.50627E-008	0.00000E+000	5.40000E-001	5.15702E-005	6	..........a	-327.65
	57	5.8	5.70153E-001	5.74438E-008	0.00000E+000	5.70000E-001	3.97368E-005	6	..........a	-327.65
	60	6.1	6.00144E-001	5.96146E-008	0.00000E+000	6.00000E-001	4.77702E-005	6	..........a	-327.65
	63	6.4	6.30124E-001	6.15977E-008	0.00000E+000	6.30000E-001	4.75035E-005	6	..........a	-327.65
	66	6.7	6.60138E-001	6.34841E-008	0.00000E+000	6.60000E-001	4.46035E-005	6	..........a	-327.65
	69	7	6.90134E-001	6.54303E-008	0.00000E+000	6.90000E-001	4.52368E-005	6	..........a	-327.65
	72	7.3	7.20112E-001	6.75446E-008	0.00000E+000	7.20000E-001	4.42368E-005	6	..........a	-327.65
	75	7.6	7.50131E-001	6.99933E-008	0.00000E+000	7.50000E-001	4.19368E-005	6	..........a	-327.65
	78	7.9	7.80146E-001	7.28112E-008	0.00000E+000	7.80000E-001	5.03368E-005	6	..........a	-327.65
	81	8.2	7.90162E-001	4.10531E-008	0.00000E+000	7.90000E-001	4.40368E-005	6	..........a	-327.65
	84	8.5	7.60178E-001	1.56258E-008	0.00000E+000	7.60000E-001	3.61702E-005	6	..........a	-327.65
	87	8.8	7.30103E-001	4.39471E-009	0.00000E+000	7.30000E-001	4.12035E-005	6	..........a	-327.65
	90	9.1	7.00208E-001	-1.78088E-009	0.00000E+000	7.00000E-001	4.66702E-005	6	..........a	-327.65
	93	9.4	6.70165E-001	-5.59066E-009	0.00000E+000	6.70000E-001	5.37368E-005	6	..........a	-327.65
	96	9.7	6.40154E-001	-8.14414E-009	0.00000E+000	6.40000E-001	5.10369E-005	6	..........a	-327.65
	99	10	6.10181E-001	-1.00166E-008	0.00000E+000	6.10000E-001	5.15368E-005	6	..........a	-327.65
	102	10.3	5.80232E-001	-1.14651E-008	0.00000E+000	5.80000E-001	4.73368E-005	6	..........a	-327.65
	105	10.6	5.50191E-001	-1.26552E-008	0.00000E+000	5.50000E-001	4.83702E-005	6	..........a	-327.65
	108	10.9	5.20165E-001	-1.36785E-008	0.00000E+000	5.20000E-001	4.72702E-005	6	..........a	-327.65
	111	11.2	4.90195E-001	-1.45523E-008	0.00000E+000	4.90000E-001	5.03702E-005	6	..........a	-327.65
	114	11.5	4.60214E-001	-1.53614E-008	0.00000E+000	4.60000E-001	5.65035E-005	6	..........a	-327.65
	117	11.8	4.30161E-001	-1.60862E-008	0.00000E+000	4.30000E-001	5.81702E-005	6	..........a	-327.65
	120	12.1	4.00156E-001	-1.66648E-008	0.00000E+000	4.00000E-001	5.88702E-005	6	..........a	-327.65
	123	12.4	3.70131E-001	-1.72469E-008	0.00000E+000	3.70000E-001	5.72702E-005	6	..........a	-327.65
	126	12.7	3.40135E-001	-1.77282E-008	0.00000E+000	3.40000E-001	5.19368E-005	6	..........a	-327.65
	129	13	3.10101E-001	-1.81825E-008	0.00000E+000	3.10000E-001	5.08702E-005	6	..........a	-327.65
	132	13.3	2.80110E-001	-1.87481E-008	0.00000E+000	2.80000E-001	4.88702E-005	6	..........a	-327.65
	135	13.6	2.50128E-001	-1.92878E-008	0.00000E+000	2.50000E-001	5.43702E-005	6	..........a	-327.65
	138	13.9	2.20151E-001	-1.98959E-008	0.00000E+000	2.20000E-001	5.76702E-005	6	..........a	-327.65
	141	14.2	1.90130E-001	-2.06034E-008	0.00000E+000	1.90000E-001	5.64035E-005	6	..........a	-327.65
	144	14.5	1.60117E-001	-2.13033E-008	0.00000E+000	1.60000E-001	5.23702E-005	6	..........a	-327.65
	147	14.8	1.30118E-001	-2.21435E-008	0.00000E+000	1.30000E-001	4.88369E-005	6	..........a	-327.65
	150	15.1	1.00143E-001	-2.30585E-008	0.00000E+000	1.00000E-001	4.59702E-005	6	..........a	-327.65
	153	15.4	7.01051E-002	-2.39762E-008	0.00000E+000	7.00000E-002	5.11035E-005	6	..........a	-327.65
	156	15.7	4.01122E-002	-2.50333E-008	0.00000E+000	4.00000E-002	5.40035E-005	6	..........a	-327.65
	159	16	1.01422E-002	-2.62851E-008	0.00000E+000	1.00000E-002	5.31035E-005	6	..........a	-327.65
	162	16.3	-1.99613E-002	-2.77467E-008	0.00000E+000	-2.00000E-002	4.94035E-005	6	..........a	-327.65
	165	16.6	-5.00305E-002	-2.93888E-008	0.00000E+000	-5.00000E-002	4.66035E-005	6	..........a	-327.65
	168	16.9	-7.99812E-002	-3.12820E-008	0.00000E+000	-8.00000E-002	4.91368E-005	6	..........a	-327.65
	171	17.2	-1.10004E-001	-3.33433E-008	0.00000E+000	-1.10000E-001	4.29702E-005	6	..........a	-327.65
	174	17.5	-1.39982E-001	-3.55879E-008	0.00000E+000	-1.40000E-001	4.36702E-005	6	..........a	-327.65
	177	17.8	-1.69975E-001	-3.79044E-008	0.00000E+000	-1.70000E-001	5.02702E-005	6	..........a	-327.65
	180	18.1	-1.99981E-001	-4.03600E-008	0.00000E+000	-2.00000E-001	5.31035E-005	6	..........a	-327.65
	183	18.4	-2.30015E-001	-4.29124E-008	0.00000E+000	-2.30000E-001	5.18702E-005	6	..........a	-327.65
	186	18.7	-2.59945E-001	-4.55914E-008	0.00000E+000	-2.60000E-001	5.53368E-005	6	..........a	-327.65
	189	19	-2.89984E-001	-4.84693E-008	0.00000E+000	-2.90000E-001	5.69369E-005	6	..........a	-327.65
	192	19.3	-3.19950E-001	-5.18650E-008	0.00000E+000	-3.20000E-001	5.53035E-005	6	..........a	-327.65
	195	19.6	-3.49996E-001	-5.59938E-008	0.00000E+000	-3.50000E-001	5.94702E-005	6	..........a	-327.65
	198	19.9	-3.79961E-001	-6.10349E-008	0.00000E+000	-3.80000E-001	5.75702E-005	6	..........a	-327.65
	201	20.2	-4.10068E-001	-6.69000E-008	0.00000E+000	-4.10000E-001	5.78035E-005	6	..........a	-327.65
	204	20.5	-4.40044E-001	-7.28595E-008	0.00000E+000	-4.40000E-001	6.15702E-005	6	..........a	-327.65
	207	20.8	-4.70065E-001	-7.79979E-008	0.00000E+000	-4.70000E-001	5.34702E-005	6	..........a	-327.65
	210	21.1	-5.00058E-001	-8.12640E-008	0.00000E+000	-5.00000E-001	4.41035E-005	6	..........a	-327.65
	213	21.4	-5.30052E-001	-8.25184E-008	0.00000E+000	-5.30000E-001	5.24702E-005	6	..........a	-327.65
	216	21.7	-5.60055E-001	-8.22840E-008	0.00000E+000	-5.60000E-001	5.47035E-005	6	..........a	-327.65
	219	22	-5.90086E-001	-8.17585E-008	0.00000E+000	-5.90000E-001	5.39702E-005	6	..........a	-327.65
	220	22.1	-6.00078E-001	-8.18435E-008	0.00000E+000	-6.00000E-001	1.14654E-003	6	..........a	-327.65
CURVE2	TABLE
	Pt	T	Vf	Im	Vu	Sig	Ach	IERange	Over	Temp
	#	s	V vs. Ref.	A	V	V	V	#	bits	deg C
	221	22.2	-5.90124E-001	-4.89906E-008	0.00000E+000	-5.90000E-001	6.00702E-005	6	..........a	-327.65
	224	22.5	-5.60098E-001	-2.75646E-008	0.00000E+000	-5.60000E-001	5.43369E-005	6	..........a	-327.65
	227	22.8	-5.30101E-001	-1.90125E-008	0.00000E+000	-5.30000E-001	4.44368E-005	6	..........a	-327.65
	230	23.1	-5.00102E-001	-1.45399E-008	0.00000E+000	-5.00000E-001	5.37702E-005	6	..........a	-327.65
	233	23.4	-4.70134E-001	-1.13769E-008	0.00000E+000	-4.70000E-001	5.46702E-005	6	..........a	-327.65
	236	23.7	-4.40106E-001	-8.61368E-009	0.00000E+000	-4.40000E-001	5.33369E-005	6	..........a	-327.65
	239	24	-4.10124E-001	-6.02489E-009	0.00000E+000	-4.10000E-001	5.27035E-005	6	..........a	-327.65
	242	24.3	-3.80020E-001	-3.59814E-009	0.00000E+000	-3.80000E-001	5.35035E-005	6	..........a	-327.65
	245	24.6	-3.50050E-001	-1.19587E-009	0.00000E+000	-3.50000E-001	5.45702E-005	6	..........a	-327.65
	248	24.9	-3.20011E-001	1.09580E-009	0.00000E+000	-3.20000E-001	5.15035E-005	6	..........a	-327.65
	251	25.2	-2.90060E-001	3.28435E-009	0.00000E+000	-2.90000E-001	5.23035E-005	6	..........a	-327.65
	254	25.5	-2.60003E-001	5.41984E-009	0.00000E+000	-2.60000E-001	5.24702E-005	6	..........a	-327.65
	257	25.8	-2.30075E-001	7.55760E-009	0.00000E+000	-2.30000E-001	4.83702E-005	6	..........a	-327.65
	260	26.1	-2.00035E-001	9.69880E-009	0.00000E+000	-2.00000E-001	5.35035E-005	6	..........a	-327.65
	263	26.4	-1.70023E-001	1.17771E-008	0.00000E+000	-1.70000E-001	5.00368E-005	6	..........a	-327.65
	266	26.7	-1.40044E-001	1.38807E-008	0.00000E+000	-1.40000E-001	4.72702E-005	6	..........a	-327.65
	269	27	-1.10060E-001	1.60054E-008	0.00000E+000	-1.10000E-001	4.18369E-005	6	..........a	-327.65
	272	27.3	-8.00286E-002	1.82160E-008	0.00000E+000	-8.00000E-002	5.01368E-005	6	..........a	-327.65
	275	27.6	-5.00720E-002	2.04851E-008	0.00000E+000	-5.00000E-002	5.57368E-005	6	..........a	-327.65
	278	27.9	-2.00097E-002	2.27873E-008	0.00000E+000	-2.00000E-002	4.82035E-005	6	..........a	-327.65
	281	28.2	1.00937E-002	2.52650E-008	0.00000E+000	1.00000E-002	4.25035E-005	6	..........a	-327.65
	284	28.5	4.00635E-002	2.78791E-008	0.00000E+000	4.00000E-002	3.95368E-005	6	..........a	-327.65
	287	28.8	7.00616E-002	3.08246E-008	0.00000E+000	7.00000E-002	3.98368E-005	6	..........a	-327.65
	290	29.1	1.00085E-001	3.39990E-008	0.00000E+000	1.00000E-001	3.99035E-005	6	..........a	-327.65
	293	29.4	1.30065E-001	3.74100E-008	0.00000E+000	1.30000E-001	3.50035E-005	6	..........a	-327.65
	296	29.7	1.60070E-001	4.10779E-008	0.00000E+000	1.60000E-001	5.14035E-005	6	..........a	-327.65
	299	30	1.90086E-001	4.47126E-008	0.00000E+000	1.90000E-001	4.88702E-005	6	..........a	-327.65
	302	30.3	2.20105E-001	4.81670E-008	0.00000E+000	2.20000E-001	4.78702E-005	6	..........a	-327.65
	305	30.6	2.50090E-001	5.12942E-008	0.00000E+000	2.50000E-001	5.09702E-005	6	..........a	-327.65
	308	30.9	2.80066E-001	5.38794E-008	0.00000E+000	2.80000E-001	4.44368E-005	6	..........a	-327.65
	311	31.2	3.10058E-001	5.57419E-008	0.00000E+000	3.10000E-001	4.53368E-005	6	..........a	-327.65
	314	31.5	3.40085E-001	5.69591E-008	0.00000E+000	3.40000E-001	4.31035E-005	6	..........a	-327.65
	317	31.8	3.70078E-001	5.73805E-008	0.00000E+000	3.70000E-001	4.38035E-005	6	..........a	-327.65
	320	32.1	4.00104E-001	5.72003E-008	0.00000E+000	4.00000E-001	4.65702E-005	6	..........a	-327.65
	323	32.4	4.30113E-001	5.65402E-008	0.00000E+000	4.30000E-001	5.30368E-005	6	..........a	-327.65
	326	32.7	4.60165E-001	5.58145E-008	0.00000E+000	4.60000E-001	5.05702E-005	6	..........a	-327.65
	329	33	4.90151E-001	5.50991E-008	0.00000E+000	4.90000E-001	4.82702E-005	6	..........a	-327.65
	332	33.3	5.20123E-001	5.45708E-008	0.00000E+000	5.20000E-001	5.35368E-005	6	..........a	-327.65
	335	33.6	5.50149E-001	5.43311E-008	0.00000E+000	5.50000E-001	5.16035E-005	6	..........a	-327.65
	338	33.9	5.80186E-001	5.43430E-008	0.00000E+000	5.80000E-001	4.86702E-005	6	..........a	-327.65
	341	34.2	6.10138E-001	5.46467E-008	0.00000E+000	6.10000E-001	5.05035E-005	6	..........a	-327.65
	344	34.5	6.40114E-001	5.52072E-008	0.00000E+000	6.40000E-001	5.30035E-005	6	..........a	-327.65
	347	34.8	6.70120E-001	5.62010E-008	0.00000E+000	6.70000E-001	5.25702E-005	6	..........a	-327.65
	350	35.1	7.00164E-001	5.75987E-008	0.00000E+000	7.00000E-001	4.66702E-005	6	..........a	-327.65
	353	35.4	7.30074E-001	5.94496E-008	0.00000E+000	7.30000E-001	4.80035E-005	6	..........a	-327.65
	356	35.7	7.60140E-001	6.18975E-008	0.00000E+000	7.60000E-001	4.51369E-005	6	..........a	-327.65
	359	36	7.90118E-001	6.52538E-008	0.00000E+000	7.90000E-001	4.52702E-005	6	..........a	-327.65
	362	36.3	7.80186E-001	2.34737E-008	0.00000E+000	7.80000E-001	5.05702E-005	6	..........a	-327.65
	365	36.6	7.50170E-001	7.35481E-009	0.00000E+000	7.50000E-001	5.43702E-005	6	..........a	-327.65
	368	36.9	7.20154E-001	-4.65489E-010	0.00000E+000	7.20000E-001	4.59035E-005	6	..........a	-327.65
	371	37.2	6.90174E-001	-4.95404E-009	0.00000E+000	6.90000E-001	5.23368E-005	6	..........a	-327.65
	374	37.5	6.60179E-001	-7.85213E-009	0.00000E+000	6.60000E-001	5.03035E-005	6	..........a	-327.65
	377	37.8	6.30167E-001	-9.87829E-009	0.00000E+000	6.30000E-001	5.02702E-005	6	..........a	-327.65
	380	38.1	6.00186E-001	-1.14235E-008	0.00000E+000	6.00000E-001	5.12702E-005	6	..........a	-327.65
	383	38.4	5.70193E-001	-1.26939E-008	0.00000E+000	5.70000E-001	5.07368E-005	6	..........a	-327.65
	386	38.7	5.40196E-001	-1.37776E-008	0.00000E+000	5.40000E-001	5.32368E-005	6	..........a	-327.65
	389	39	5.10169E-001	-1.46953E-008	0.00000E+000	5.10000E-001	5.06368E-005	6	..........a	-327.65
	392	39.3	4.80167E-001	-1.55174E-008	0.00000E+000	4.80000E-001	5.45368E-005	6	..........a	-327.65
	395	39.6	4.50160E-001	-1.63165E-008	0.00000E+000	4.50000E-001	5.32368E-005	6	..........a	-327.65
	398	39.9	4.20197E-001	-1.68932E-008	0.00000E+000	4.20000E-001	5.38035E-005	6	..........a	-327.65
	401	40.2	3.90115E-001	-1.74983E-008	0.00000E+000	3.90000E-001	5.62035E-005	6	..........a	-327.65
	404	40.5	3.60094E-001	-1.80740E-008	0.00000E+000	3.60000E-001	5.86368E-005	6	..........a	-327.65
[...]
	1271	127.2	9.00806E-002	-2.45105E-008	0.00000E+000	9.00000E-002	4.73035E-005	6	..........a	-327.65
	1274	127.5	6.01532E-002	-2.54478E-008	0.00000E+000	6.00000E-002	4.83368E-005	6	..........a	-327.65
	1277	127.8	3.01252E-002	-2.64633E-008	0.00000E+000	3.00000E-002	4.64702E-005	6	..........a	-327.65
	1280	128.1	1.03877E-004	-2.75690E-008	0.00000E+000	7.45058E-009	4.41702E-005	6	..........a	-327.65
	1283	128.4	-3.00232E-002	-2.88058E-008	0.00000E+000	-3.00000E-002	5.07702E-005	6	..........a	-327.65
	1286	128.7	-5.99699E-002	-3.01738E-008	0.00000E+000	-6.00000E-002	4.16368E-005	6	..........a	-327.65
	1289	129	-8.99964E-002	-3.16533E-008	0.00000E+000	-9.00000E-002	4.76035E-005	6	..........a	-327.65
	1292	129.3	-1.19969E-001	-3.33229E-008	0.00000E+000	-1.20000E-001	3.95368E-005	6	..........a	-327.65
	1295	129.6	-1.50007E-001	-3.51348E-008	0.00000E+000	-1.50000E-001	4.45702E-005	6	..........a	-327.65
	1298	129.9	-1.79972E-001	-3.71039E-008	0.00000E+000	-1.80000E-001	4.09035E-005	6	..........a	-327.65
	1301	130.2	-2.10010E-001	-3.92160E-008	0.00000E+000	-2.10000E-001	4.61368E-005	6	..........a	-327.65
	1304	130.5	-2.39963E-001	-4.14080E-008	0.00000E+000	-2.40000E-001	4.48702E-005	6	..........a	-327.65
	1307	130.8	-2.69971E-001	-4.37006E-008	0.00000E+000	-2.70000E-001	4.78368E-005	6	..........a	-327.65
	1310	131.1	-2.99975E-001	-4.61069E-008	0.00000E+000	-3.00000E-001	5.00035E-005	6	..........a	-327.65
	1313	131.4	-3.30013E-001	-4.88106E-008	0.00000E+000	-3.30000E-001	5.27368E-005	6	..........a	-327.65
	1316	131.7	-3.59969E-001	-5.18758E-008	0.00000E+000	-3.60000E-001	5.39702E-005	6	..........a	-327.65
	1319	132	-3.90029E-001	-5.53713E-008	0.00000E+000	-3.90000E-001	5.66368E-005	6	..........a	-327.65
	1322	132.3	-4.20056E-001	-5.91758E-008	0.00000E+000	-4.20000E-001	5.51035E-005	6	..........a	-327.65
	1325	132.6	-4.50067E-001	-6.31062E-008	0.00000E+000	-4.50000E-001	5.63702E-005	6	..........a	-327.65
	1328	132.9	-4.80045E-001	-6.67479E-008	0.00000E+000	-4.80000E-001	5.41368E-005	6	..........a	-327.65
	1331	133.2	-5.10095E-001	-6.95710E-008	0.00000E+000	-5.10000E-001	5.89035E-005	6	..........a	-327.65
	1334	133.5	-5.40043E-001	-7.14626E-008	0.00000E+000	-5.40000E-001	5.75035E-005	6	..........a	-327.65
	1337	133.8	-5.70057E-001	-7.26739E-008	0.00000E+000	-5.70000E-001	4.82702E-005	6	..........a	-327.65
	1340	134.1	-6.00078E-001	-7.40271E-008	0.00000E+000	-6.00000E-001	1.14374E-003	6	..........a	-327.65
CURVE6	TABLE
	Pt	T	Vf	Im	Vu	Sig	Ach	IERange	Over	Temp
	#	s	V vs. Ref.	A	V	V	V	#	bits	deg C
	1341	134.2	-5.90123E-001	-4.32065E-008	0.00000E+000	-5.90000E-001	5.22702E-005	6	..........a	-327.65
	1342	134.3	-5.80069E-001	-3.48665E-008	0.00000E+000	-5.80000E-001	4.98035E-005	6	..........a	-327.65
	1343	134.4	-5.70107E-001	-2.91642E-008	0.00000E+000	-5.70000E-001	4.59035E-005	6	..........a	-327.65
	1344	134.5	-5.60106E-001	-2.50018E-008	0.00000E+000	-5.60000E-001	4.24035E-005	6	..........a	-327.65
	1345	134.6	-5.50168E-001	-2.18471E-008	0.00000E+000	-5.50000E-001	4.44035E-005	6	..........a	-327.65
	1346	134.7	-5.40088E-001	-1.93858E-008	0.00000E+000	-5.40000E-001	4.04035E-005	6	..........a	-327.65
	1347	134.8	-5.30102E-001	-1.74610E-008	0.00000E+000	-5.30000E-001	4.74702E-005	6	..........a	-327.65
	1348	134.9	-5.20072E-001	-1.58035E-008	0.00000E+000	-5.20000E-001	4.38702E-005	6	..........a	-327.65
	1349	135	-5.10143E-001	-1.44131E-008	0.00000E+000	-5.10000E-001	4.36368E-005	6	..........a	-327.65
	1350	135.1	-5.00101E-001	-1.31599E-008	0.00000E+000	-5.00000E-001	4.45702E-005	6	..........a	-327.65
	1351	135.2	-4.90130E-001	-1.20155E-008	0.00000E+000	-4.90000E-001	5.08035E-005	6	..........a	-327.65
	1352	135.3	-4.80097E-001	-1.09762E-008	0.00000E+000	-4.80000E-001	5.25035E-005	6	..........a	-327.65
	1353	135.4	-4.70130E-001	-1.00050E-008	0.00000E+000	-4.70000E-001	4.98035E-005	6	..........a	-327.65
	1354	135.5	-4.60106E-001	-9.05395E-009	0.00000E+000	-4.60000E-001	4.64368E-005	6	..........a	-327.65
	1355	135.6	-4.50112E-001	-8.11230E-009	0.00000E+000	-4.50000E-001	4.84702E-005	6	..........a	-327.65
	1356	135.7	-4.40104E-001	-7.21257E-009	0.00000E+000	-4.40000E-001	4.60368E-005	6	..........a	-327.65
	1357	135.8	-4.30115E-001	-6.29540E-009	0.00000E+000	-4.30000E-001	4.47368E-005	6	..........a	-327.65
	1358	135.9	-4.20102E-001	-5.37723E-009	0.00000E+000	-4.20000E-001	4.24702E-005	6	..........a	-327.65
	1359	136	-4.10125E-001	-4.48284E-009	0.00000E+000	-4.10000E-001	4.81368E-005	6	..........a	-327.65
	1360	136.1	-4.00035E-001	-3.58671E-009	0.00000E+000	-4.00000E-001	4.60035E-005	6	..........a	-327.65
	1361	136.2	-3.90083E-001	-2.66207E-009	0.00000E+000	-3.90000E-001	4.98702E-005	6	..........a	-327.65
	1362	136.3	-3.80012E-001	-1.76224E-009	0.00000E+000	-3.80000E-001	4.78035E-005	6	..........a	-327.65
	1363	136.4	-3.70102E-001	-8.72942E-010	0.00000E+000	-3.70000E-001	4.57368E-005	6	..........a	-327.65
	1364	136.5	-3.60026E-001	3.67254E-011	0.00000E+000	-3.60000E-001	4.74702E-005	6	..........a	-327.65
	1365	136.6	-3.50047E-001	9.32155E-010	0.00000E+000	-3.50000E-001	4.25702E-005	6	..........a	-327.65
	1366	136.7	-3.40024E-001	1.77184E-009	0.00000E+000	-3.40000E-001	4.39702E-005	6	..........a	-327.65
	1367	136.8	-3.30057E-001	2.62095E-009	0.00000E+000	-3.30000E-001	4.67035E-005	6	..........a	-327.65
	1368	136.9	-3.20017E-001	3.43602E-009	0.00000E+000	-3.20000E-001	4.80035E-005	6	..........a	-327.65
	1369	137	-3.10056E-001	4.20635E-009	0.00000E+000	-3.10000E-001	4.72035E-005	6	..........a	-327.65
	1370	137.1	-3.00023E-001	4.96271E-009	0.00000E+000	-3.00000E-001	4.38702E-005	6	..........a	-327.65
	1371	137.2	-2.90064E-001	5.67035E-009	0.00000E+000	-2.90000E-001	4.77035E-005	6	..........a	-327.65
	1372	137.3	-2.80036E-001	6.46311E-009	0.00000E+000	-2.80000E-001	5.12368E-005	6	..........a	-327.65
	1373	137.4	-2.70016E-001	7.19473E-009	0.00000E+000	-2.70000E-001	5.13369E-005	6	..........a	-327.65
	1374	137.5	-2.59994E-001	7.86296E-009	0.00000E+000	-2.60000E-001	4.90368E-005	6	..........a	-327.65
	1375	137.6	-2.50048E-001	8.57794E-009	0.00000E+000	-2.50000E-001	4.90368E-005	6	..........a	-327.65
	1376	137.7	-2.40011E-001	9.24650E-009	0.00000E+000	-2.40000E-001	4.73368E-005	6	..........a	-327.65
	1377	137.8	-2.30063E-001	9.92453E-009	0.00000E+000	-2.30000E-001	4.16035E-005	6	..........a	-327.65
	1378	137.9	-2.19996E-001	1.06090E-008	0.00000E+000	-2.20000E-001	4.30702E-005	6	..........a	-327.65
	1379	138	-2.10052E-001	1.12891E-008	0.00000E+000	-2.10000E-001	4.59369E-005	6	..........a	-327.65
	1380	138.1	-2.00033E-001	1.19721E-008	0.00000E+000	-2.00000E-001	4.72368E-005	6	..........a	-327.65
	1381	138.2	-1.90094E-001	1.25816E-008	0.00000E+000	-1.90000E-001	4.46702E-005	6	..........a	-327.65
	1382	138.3	-1.80008E-001	1.32086E-008	0.00000E+000	-1.80000E-001	4.43702E-005	6	..........a	-327.65
	1383	138.4	-1.70019E-001	1.37695E-008	0.00000E+000	-1.70000E-001	4.42368E-005	6	..........a	-327.65
	1384	138.5	-1.59989E-001	1.44738E-008	0.00000E+000	-1.60000E-001	3.94368E-005	6	..........a	-327.65
	1385	138.6	-1.50049E-001	1.51039E-008	0.00000E+000	-1.50000E-001	4.04368E-005	6	..........a	-327.65
	1386	138.7	-1.40029E-001	1.57177E-008	0.00000E+000	-1.40000E-001	3.73035E-005	6	..........a	-327.65
	1387	138.8	-1.30057E-001	1.63429E-008	0.00000E+000	-1.30000E-001	3.98035E-005	6	..........a	-327.65
	1388	138.9	-1.20019E-001	1.70025E-008	0.00000E+000	-1.20000E-001	4.46035E-005	6	..........a	-327.65
	1389	139	-1.10048E-001	1.76302E-008	0.00000E+000	-1.10000E-001	4.04702E-005	6	..........a	-327.65
	1390	139.1	-1.00028E-001	1.82706E-008	0.00000E+000	-1.00000E-001	4.04702E-005	6	..........a	-327.65
	1391	139.2	-9.00421E-002	1.89054E-008	0.00000E+000	-9.00000E-002	4.05035E-005	6	..........a	-327.65
	1392	139.3	-8.00325E-002	1.95622E-008	0.00000E+000	-8.00000E-002	4.15035E-005	6	..........a	-327.65
	1393	139.4	-7.00284E-002	2.01862E-008	0.00000E+000	-7.00000E-002	4.42368E-005	6	..........a	-327.65
	1394	139.5	-6.00176E-002	2.08332E-008	0.00000E+000	-6.00000E-002	3.43702E-005	6	..........a	-327.65
	1395	139.6	-5.00713E-002	2.15356E-008	0.00000E+000	-5.00000E-002	3.73035E-005	6	..........a	-327.65
	1396	139.7	-4.00255E-002	2.22265E-008	0.00000E+000	-4.00000E-002	3.67035E-005	6	..........a	-327.65
	1397	139.8	-3.00713E-002	2.29070E-008	0.00000E+000	-3.00000E-002	3.87702E-005	6	..........a	-327.65
	1398	139.9	-2.00027E-002	2.36381E-008	0.00000E+000	-2.00000E-002	4.01368E-005	6	..........a	-327.65
	1399	140	-1.00527E-002	2.44026E-008	0.00000E+000	-1.00000E-002	3.98368E-005	6	..........a	-327.65
	1400	140.1	4.67179E-005	2.51444E-008	0.00000E+000	7.45058E-009	1.13704E-003	6	..........a	-327.65