File: Figure 1F/data/7.5M.DTA
EXPLAIN
TAG	CV
TITLE	LABEL	Cyclic Voltammetry	Test &Identifier
DATE	LABEL	8/23/2021	Date
TIME	LABEL	21:40:34	Time
NOTES	NOTES	1	&Notes...

PSTAT	PSTAT	REF600P-40007	Potentiostat
VINIT	POTEN	0.00000E+000	F	Initial &E (V)
VLIMIT1	POTEN	8.00000E-001	F	Scan Limit &1 (V)
VLIMIT2	POTEN	-6.00000E-001	F	Scan Limit &2 (V)
VFINAL	POTEN	0.00000E+000	F	Final &E (V)
SCANRATE	QUANT	9.99998E+001	&Scan Rate (mV/s)
STEPSIZE	QUANT	1.00000E+001	St&ep Size (mV)
CYCLES	IQUANT	5	C&ycles (#)
IMODE	SELECTOR	0	I/E Range &Mode
IRANGE	QUANT	3.00000E-001	&Max Current (mA)
AREA	QUANT	2.87000E-005	Electrode &Area (cm^2)
ELECTRODETYPE	SELECTOR	0	Electrode Type
STRIPPING	TOGGLE	F	Used for Stripping
POLARITY	TOGGLE	F	Signal Polarity
CONDIT	TWOPARAM	F	1.50000E+001	0.00000E+000	Conditionin&g	Time(s)	E(V)
DELAY	TWOPARAM	T	5.00000E+000	0.00000E+000	Init. De&lay	Time(s)	Stab.(mV/s)
EQDELAY	QUANT	5.00000E+000	Equil. &Time (s)
IRCOMP	SELECTOR	0	IRCom&p
PFCOR	QUANT	5.00000E+001	PF Corr. (ohm)
SAMPLINGMODE	SELECTOR	2	Sampling &Mode
OCVCURVE	TABLE	19
	Pt	T	Vf	Vm	Ach	Over	Temp
	#	s	V vs. Ref.	V	V	bits	deg C
	0	0.258333	8.96211E-002	8.96211E-002	1.13947E-003	..........a	-327.65
	1	0.516667	8.96287E-002	9.00191E-002	1.13480E-003	..........a	-327.65
	2	0.775	8.96777E-002	9.05186E-002	1.14000E-003	..........a	-327.65
	3	1.03333	8.98247E-002	9.10266E-002	1.13440E-003	..........a	-327.65
	4	1.29167	9.01048E-002	9.14969E-002	1.12967E-003	..........a	-327.65
	5	1.55	9.04996E-002	9.19352E-002	1.13067E-003	..........a	-327.65
	6	1.80833	9.09556E-002	9.23299E-002	1.12920E-003	..........a	-327.65
	7	2.06667	9.14217E-002	9.27388E-002	1.13087E-003	..........a	-327.65
	8	2.325	9.18701E-002	9.31438E-002	1.13054E-003	..........a	-327.65
	9	2.58333	9.22991E-002	9.36860E-002	1.13494E-003	..........a	-327.65
	10	2.84167	9.27306E-002	9.44019E-002	1.13067E-003	..........a	-327.65
	11	3.1	9.31997E-002	9.49235E-002	1.13114E-003	..........a	-327.65
	12	3.35833	9.37236E-002	9.54070E-002	1.13447E-003	..........a	-327.65
	13	3.61667	9.42783E-002	9.58055E-002	1.13307E-003	..........a	-327.65
	14	3.875	9.48154E-002	9.60579E-002	1.12847E-003	..........a	-327.65
	15	4.13333	9.52919E-002	9.62746E-002	1.12994E-003	..........a	-327.65
	16	4.39167	9.56874E-002	9.65977E-002	1.12767E-003	..........a	-327.65
	17	4.65	9.60146E-002	9.69894E-002	1.12447E-003	..........a	-327.65
	18	4.90833	9.63125E-002	9.72615E-002	1.12747E-003	..........a	-327.65
EOC	QUANT	0.0963125	Open Circuit (V)
PSTATMODEL	IQUANT	7	Pstat Model
PSTATSECTION	LABEL	REF600P-40007	Pstat Section
PSTATSERIALNO	LABEL	40007	Pstat Serial Number
CTRLMODE	IQUANT	1	Control Mode
ELECTROMETER	IQUANT	0	RE=0 or CS=1
IESTAB	IQUANT	2	I/E Stability
CASPEED	IQUANT	4	Control Amp Speed
CONVENTION	IQUANT	1	Current Convention
ICHRANGE	IQUANT	2	Ich Range
ICHRANGEMODE	TOGGLE	F	Ich Auto Range
ICHOFFSETENABLE	TOGGLE	F	Ich Offset Enable
ICHOFFSET	QUANT	0	Ich Offset (V)
ICHFILTER	IQUANT	2	Ich Filter
VCHRANGE	IQUANT	2	Vch Range
VCHRANGEMODE	TOGGLE	F	Vch Auto Range
VCHOFFSETENABLE	TOGGLE	F	Vch Offset Enable
VCHOFFSET	QUANT	0	Vch Offset (V)
VCHFILTER	IQUANT	2	Vch Filter
ACHRANGE	IQUANT	2	Ach Range
ACHOFFSETENABLE	TOGGLE	F	Ach Offset Enable
ACHOFFSET	QUANT	0	Ach Offset (V)
ACHFILTER	IQUANT	1	Ach Filter
IERANGELOWERLIMIT	IQUANT	1	I/E Range Lower Limit
IERANGEMODE	TOGGLE	T	I/E AutoRange
IERANGE	IQUANT	8	I/E Range
POSFEEDENABLE	TOGGLE	F	Positive Feedback IR Comp
POSFEEDRESISTANCE	QUANT	0	Positive Feedback Resistance (ohm)
ACHSELECT	IQUANT	0	Ach Select
SENSECABLEID	IQUANT	7	Sense Cable ID
PWRCABLEID	IQUANT	7	Power Cable ID
DCCALDATE	LABEL	8/21/2021	DC Calibration Date
ACCALDATE	LABEL	8/21/2021	AC Calibration Date
THERMOSELECT	IQUANT	1	Thermo Select
FRAMEWORKVERSION	LABEL	7.8.1	Framework Version
INSTRUMENTVERSION	LABEL	4.40	Instrument Version
CURVE1	TABLE
	Pt	T	Vf	Im	Vu	Sig	Ach	IERange	Over	Temp
	#	s	V vs. Ref.	A	V	V	V	#	bits	deg C
	0	0.1	7.65045E-005	1.72481E-007	0.00000E+000	7.45058E-009	1.12154E-003	8	..........a	-327.65
	3	0.4	3.00836E-002	1.08306E-008	0.00000E+000	3.00000E-002	1.11834E-003	6	..........a	-327.65
	6	0.7	6.01064E-002	1.37392E-008	0.00000E+000	6.00000E-002	2.41035E-005	6	..........a	-327.65
	9	1	9.00431E-002	1.65236E-008	0.00000E+000	9.00000E-002	3.33702E-005	6	..........a	-327.65
	12	1.3	1.20069E-001	1.94906E-008	0.00000E+000	1.20000E-001	3.33702E-005	6	..........a	-327.65
	15	1.6	1.50080E-001	2.27333E-008	0.00000E+000	1.50000E-001	2.87702E-005	6	..........a	-327.65
	18	1.9	1.80076E-001	2.62087E-008	0.00000E+000	1.80000E-001	2.73702E-005	6	..........a	-327.65
	21	2.2	2.10070E-001	2.95888E-008	0.00000E+000	2.10000E-001	2.32702E-005	6	..........a	-327.65
	24	2.5	2.40091E-001	3.25553E-008	0.00000E+000	2.40000E-001	2.37035E-005	6	..........a	-327.65
	27	2.8	2.70031E-001	3.48497E-008	0.00000E+000	2.70000E-001	2.76035E-005	6	..........a	-327.65
	30	3.1	3.00105E-001	3.64709E-008	0.00000E+000	3.00000E-001	2.63702E-005	6	..........a	-327.65
	33	3.4	3.30065E-001	3.74321E-008	0.00000E+000	3.30000E-001	3.05368E-005	6	..........a	-327.65
	36	3.7	3.60057E-001	3.78748E-008	0.00000E+000	3.60000E-001	3.01035E-005	6	..........a	-327.65
	39	4	3.90075E-001	3.80427E-008	0.00000E+000	3.90000E-001	1.71702E-005	6	..........a	-327.65
	42	4.3	4.20146E-001	3.83078E-008	0.00000E+000	4.20000E-001	2.66369E-005	6	..........a	-327.65
	45	4.6	4.50127E-001	3.89922E-008	0.00000E+000	4.50000E-001	2.51035E-005	6	..........a	-327.65
	48	4.9	4.80120E-001	4.02059E-008	0.00000E+000	4.80000E-001	2.49702E-005	6	..........a	-327.65
	51	5.2	5.10128E-001	4.20930E-008	0.00000E+000	5.10000E-001	3.22035E-005	6	..........a	-327.65
	54	5.5	5.40145E-001	4.44207E-008	0.00000E+000	5.40000E-001	2.94368E-005	6	..........a	-327.65
	57	5.8	5.70146E-001	4.72988E-008	0.00000E+000	5.70000E-001	2.76368E-005	6	..........a	-327.65
	60	6.1	6.00142E-001	5.03046E-008	0.00000E+000	6.00000E-001	3.07702E-005	6	..........a	-327.65
	63	6.4	6.30144E-001	5.34788E-008	0.00000E+000	6.30000E-001	2.47368E-005	6	..........a	-327.65
	66	6.7	6.60140E-001	5.67282E-008	0.00000E+000	6.60000E-001	3.21702E-005	6	..........a	-327.65
	69	7	6.90134E-001	6.00143E-008	0.00000E+000	6.90000E-001	3.05368E-005	6	..........a	-327.65
	72	7.3	7.20114E-001	6.33531E-008	0.00000E+000	7.20000E-001	2.97035E-005	6	..........a	-327.65
	75	7.6	7.50134E-001	6.69448E-008	0.00000E+000	7.50000E-001	3.08368E-005	6	..........a	-327.65
	78	7.9	7.80151E-001	7.08987E-008	0.00000E+000	7.80000E-001	2.72368E-005	6	..........a	-327.65
	81	8.2	7.90173E-001	3.74483E-008	0.00000E+000	7.90000E-001	2.84368E-005	6	..........a	-327.65
	84	8.5	7.60176E-001	1.31933E-008	0.00000E+000	7.60000E-001	1.89368E-005	6	..........a	-327.65
	87	8.8	7.30122E-001	2.60845E-009	0.00000E+000	7.30000E-001	2.36368E-005	6	..........a	-327.65
	90	9.1	7.00211E-001	-3.12094E-009	0.00000E+000	7.00000E-001	3.17035E-005	6	..........a	-327.65
	93	9.4	6.70170E-001	-6.62280E-009	0.00000E+000	6.70000E-001	2.89035E-005	6	..........a	-327.65
	96	9.7	6.40154E-001	-8.98232E-009	0.00000E+000	6.40000E-001	2.93035E-005	6	..........a	-327.65
	99	10	6.10175E-001	-1.07198E-008	0.00000E+000	6.10000E-001	2.65368E-005	6	..........a	-327.65
	102	10.3	5.80236E-001	-1.20552E-008	0.00000E+000	5.80000E-001	2.53702E-005	6	..........a	-327.65
	105	10.6	5.50195E-001	-1.31932E-008	0.00000E+000	5.50000E-001	3.42368E-005	6	..........a	-327.65
	108	10.9	5.20170E-001	-1.40864E-008	0.00000E+000	5.20000E-001	3.09702E-005	6	..........a	-327.65
	111	11.2	4.90193E-001	-1.48417E-008	0.00000E+000	4.90000E-001	3.22035E-005	6	..........a	-327.65
	114	11.5	4.60206E-001	-1.54974E-008	0.00000E+000	4.60000E-001	3.50369E-005	6	..........a	-327.65
	117	11.8	4.30158E-001	-1.60758E-008	0.00000E+000	4.30000E-001	3.23702E-005	6	..........a	-327.65
	120	12.1	4.00149E-001	-1.65095E-008	0.00000E+000	4.00000E-001	2.80702E-005	6	..........a	-327.65
	123	12.4	3.70120E-001	-1.68884E-008	0.00000E+000	3.70000E-001	3.05368E-005	6	..........a	-327.65
	126	12.7	3.40124E-001	-1.72107E-008	0.00000E+000	3.40000E-001	3.48368E-005	6	..........a	-327.65
	129	13	3.10091E-001	-1.75349E-008	0.00000E+000	3.10000E-001	2.66035E-005	6	..........a	-327.65
	132	13.3	2.80103E-001	-1.78698E-008	0.00000E+000	2.80000E-001	3.43369E-005	6	..........a	-327.65
	135	13.6	2.50127E-001	-1.82574E-008	0.00000E+000	2.50000E-001	3.45368E-005	6	..........a	-327.65
	138	13.9	2.20146E-001	-1.87310E-008	0.00000E+000	2.20000E-001	3.26035E-005	6	..........a	-327.65
	141	14.2	1.90125E-001	-1.93336E-008	0.00000E+000	1.90000E-001	2.44368E-005	6	..........a	-327.65
	144	14.5	1.60112E-001	-2.00462E-008	0.00000E+000	1.60000E-001	3.14368E-005	6	..........a	-327.65
	147	14.8	1.30111E-001	-2.09029E-008	0.00000E+000	1.30000E-001	3.30368E-005	6	..........a	-327.65
	150	15.1	1.00137E-001	-2.18630E-008	0.00000E+000	1.00000E-001	3.00035E-005	6	..........a	-327.65
	153	15.4	7.01026E-002	-2.29178E-008	0.00000E+000	7.00000E-002	3.54035E-005	6	..........a	-327.65
	156	15.7	4.01120E-002	-2.40472E-008	0.00000E+000	4.00000E-002	3.36702E-005	6	..........a	-327.65
	159	16	1.01341E-002	-2.53988E-008	0.00000E+000	1.00000E-002	3.62368E-005	6	..........a	-327.65
	162	16.3	-1.99664E-002	-2.69795E-008	0.00000E+000	-2.00000E-002	3.21702E-005	6	..........a	-327.65
	165	16.6	-5.00335E-002	-2.88228E-008	0.00000E+000	-5.00000E-002	3.24035E-005	6	..........a	-327.65
	168	16.9	-7.99802E-002	-3.08596E-008	0.00000E+000	-8.00000E-002	3.37035E-005	6	..........a	-327.65
	171	17.2	-1.10007E-001	-3.31469E-008	0.00000E+000	-1.10000E-001	3.47035E-005	6	..........a	-327.65
	174	17.5	-1.39982E-001	-3.56940E-008	0.00000E+000	-1.40000E-001	3.48035E-005	6	..........a	-327.65
	177	17.8	-1.69978E-001	-3.84359E-008	0.00000E+000	-1.70000E-001	3.76368E-005	6	..........a	-327.65
	180	18.1	-1.99985E-001	-4.12967E-008	0.00000E+000	-2.00000E-001	3.73368E-005	6	..........a	-327.65
	183	18.4	-2.30010E-001	-4.42313E-008	0.00000E+000	-2.30000E-001	3.70702E-005	6	..........a	-327.65
	186	18.7	-2.59949E-001	-4.72469E-008	0.00000E+000	-2.60000E-001	4.17035E-005	6	..........a	-327.65
	189	19	-2.89986E-001	-5.05361E-008	0.00000E+000	-2.90000E-001	4.32035E-005	6	..........a	-327.65
	192	19.3	-3.19949E-001	-5.43147E-008	0.00000E+000	-3.20000E-001	4.60702E-005	6	..........a	-327.65
	195	19.6	-3.49997E-001	-5.88675E-008	0.00000E+000	-3.50000E-001	5.06368E-005	6	..........a	-327.65
	198	19.9	-3.79962E-001	-6.45668E-008	0.00000E+000	-3.80000E-001	4.50035E-005	6	..........a	-327.65
	201	20.2	-4.10067E-001	-7.13726E-008	0.00000E+000	-4.10000E-001	4.35035E-005	6	..........a	-327.65
	204	20.5	-4.40041E-001	-7.87031E-008	0.00000E+000	-4.40000E-001	4.36702E-005	6	..........a	-327.65
	207	20.8	-4.70069E-001	-8.52449E-008	0.00000E+000	-4.70000E-001	4.48035E-005	6	..........a	-327.65
	210	21.1	-5.00054E-001	-8.98591E-008	0.00000E+000	-5.00000E-001	4.67702E-005	6	..........a	-327.65
	213	21.4	-5.30053E-001	-9.19766E-008	0.00000E+000	-5.30000E-001	4.97035E-005	6	..........a	-327.65
	216	21.7	-5.60054E-001	-9.18971E-008	0.00000E+000	-5.60000E-001	4.72368E-005	6	..........a	-327.65
	219	22	-5.90086E-001	-9.09082E-008	0.00000E+000	-5.90000E-001	4.60368E-005	6	..........a	-327.65
	220	22.1	-6.00077E-001	-9.06865E-008	0.00000E+000	-6.00000E-001	1.14054E-003	6	..........a	-327.65
CURVE2	TABLE
	Pt	T	Vf	Im	Vu	Sig	Ach	IERange	Over	Temp
	#	s	V vs. Ref.	A	V	V	V	#	bits	deg C
	221	22.2	-5.90124E-001	-5.48491E-008	0.00000E+000	-5.90000E-001	4.77035E-005	6	..........a	-327.65
	224	22.5	-5.60101E-001	-3.04108E-008	0.00000E+000	-5.60000E-001	4.08369E-005	6	..........a	-327.65
	227	22.8	-5.30106E-001	-2.02331E-008	0.00000E+000	-5.30000E-001	3.40702E-005	6	..........a	-327.65
	230	23.1	-5.00105E-001	-1.51430E-008	0.00000E+000	-5.00000E-001	3.94702E-005	6	..........a	-327.65
	233	23.4	-4.70132E-001	-1.19813E-008	0.00000E+000	-4.70000E-001	3.79702E-005	6	..........a	-327.65
	236	23.7	-4.40104E-001	-9.44546E-009	0.00000E+000	-4.40000E-001	3.32702E-005	6	..........a	-327.65
	239	24	-4.10122E-001	-7.12138E-009	0.00000E+000	-4.10000E-001	3.02035E-005	6	..........a	-327.65
	242	24.3	-3.80023E-001	-4.81523E-009	0.00000E+000	-3.80000E-001	3.26702E-005	6	..........a	-327.65
	245	24.6	-3.50053E-001	-2.47198E-009	0.00000E+000	-3.50000E-001	3.27035E-005	6	..........a	-327.65
	248	24.9	-3.20015E-001	1.07279E-010	0.00000E+000	-3.20000E-001	3.44368E-005	6	..........a	-327.65
	251	25.2	-2.90061E-001	2.20406E-009	0.00000E+000	-2.90000E-001	3.03368E-005	6	..........a	-327.65
	254	25.5	-2.60007E-001	4.39217E-009	0.00000E+000	-2.60000E-001	3.35702E-005	6	..........a	-327.65
	257	25.8	-2.30075E-001	6.53950E-009	0.00000E+000	-2.30000E-001	3.35368E-005	6	..........a	-327.65
	260	26.1	-2.00037E-001	8.71644E-009	0.00000E+000	-2.00000E-001	3.29702E-005	6	..........a	-327.65
	263	26.4	-1.70031E-001	1.08802E-008	0.00000E+000	-1.70000E-001	3.56368E-005	6	..........a	-327.65
	266	26.7	-1.40031E-001	1.30565E-008	0.00000E+000	-1.40000E-001	3.09702E-005	6	..........a	-327.65
	269	27	-1.10051E-001	1.52763E-008	0.00000E+000	-1.10000E-001	2.92035E-005	6	..........a	-327.65
	272	27.3	-8.00303E-002	1.76092E-008	0.00000E+000	-8.00000E-002	2.75035E-005	6	..........a	-327.65
	275	27.6	-5.00729E-002	2.00287E-008	0.00000E+000	-5.00000E-002	2.76368E-005	6	..........a	-327.65
	278	27.9	-2.00071E-002	2.24910E-008	0.00000E+000	-2.00000E-002	2.59702E-005	6	..........a	-327.65
	281	28.2	1.00912E-002	2.52224E-008	0.00000E+000	1.00000E-002	3.32035E-005	6	..........a	-327.65
	284	28.5	4.00660E-002	2.83152E-008	0.00000E+000	4.00000E-002	3.15702E-005	6	..........a	-327.65
	287	28.8	7.00608E-002	3.13430E-008	0.00000E+000	7.00000E-002	2.81702E-005	6	..........a	-327.65
	290	29.1	1.00083E-001	3.49016E-008	0.00000E+000	1.00000E-001	2.51368E-005	6	..........a	-327.65
	293	29.4	1.30071E-001	3.88890E-008	0.00000E+000	1.30000E-001	3.48035E-005	6	..........a	-327.65
	296	29.7	1.60069E-001	4.30281E-008	0.00000E+000	1.60000E-001	3.10702E-005	6	..........a	-327.65
	299	30	1.90088E-001	4.70887E-008	0.00000E+000	1.90000E-001	3.33035E-005	6	..........a	-327.65
	302	30.3	2.20107E-001	5.10983E-008	0.00000E+000	2.20000E-001	3.13702E-005	6	..........a	-327.65
	305	30.6	2.50099E-001	5.44628E-008	0.00000E+000	2.50000E-001	2.98368E-005	6	..........a	-327.65
	308	30.9	2.80068E-001	5.71899E-008	0.00000E+000	2.80000E-001	3.05702E-005	6	..........a	-327.65
	311	31.2	3.10060E-001	5.91767E-008	0.00000E+000	3.10000E-001	3.38368E-005	6	..........a	-327.65
	314	31.5	3.40088E-001	6.02636E-008	0.00000E+000	3.40000E-001	3.81368E-005	6	..........a	-327.65
	317	31.8	3.70078E-001	6.08596E-008	0.00000E+000	3.70000E-001	3.18368E-005	6	..........a	-327.65
	320	32.1	4.00100E-001	6.01017E-008	0.00000E+000	4.00000E-001	3.79702E-005	6	..........a	-327.65
	323	32.4	4.30120E-001	5.87955E-008	0.00000E+000	4.30000E-001	3.39368E-005	6	..........a	-327.65
	326	32.7	4.60158E-001	5.76245E-008	0.00000E+000	4.60000E-001	3.05035E-005	6	..........a	-327.65
	329	33	4.90152E-001	5.66440E-008	0.00000E+000	4.90000E-001	3.07702E-005	6	..........a	-327.65
	332	33.3	5.20124E-001	5.59840E-008	0.00000E+000	5.20000E-001	3.43035E-005	6	..........a	-327.65
	335	33.6	5.50150E-001	5.55247E-008	0.00000E+000	5.50000E-001	3.44368E-005	6	..........a	-327.65
	338	33.9	5.80188E-001	5.54549E-008	0.00000E+000	5.80000E-001	3.31702E-005	6	..........a	-327.65
	341	34.2	6.10141E-001	5.56954E-008	0.00000E+000	6.10000E-001	3.75368E-005	6	..........a	-327.65
	344	34.5	6.40111E-001	5.62105E-008	0.00000E+000	6.40000E-001	3.73702E-005	6	..........a	-327.65
	347	34.8	6.70121E-001	5.74037E-008	0.00000E+000	6.70000E-001	3.01702E-005	6	..........a	-327.65
	350	35.1	7.00162E-001	5.84674E-008	0.00000E+000	7.00000E-001	3.69702E-005	6	..........a	-327.65
	353	35.4	7.30071E-001	6.03286E-008	0.00000E+000	7.30000E-001	3.33035E-005	6	..........a	-327.65
	356	35.7	7.60137E-001	6.29506E-008	0.00000E+000	7.60000E-001	3.73368E-005	6	..........a	-327.65
	359	36	7.90122E-001	6.62665E-008	0.00000E+000	7.90000E-001	3.49702E-005	6	..........a	-327.65
	362	36.3	7.80189E-001	2.24987E-008	0.00000E+000	7.80000E-001	3.47702E-005	6	..........a	-327.65
	365	36.6	7.50172E-001	6.70679E-009	0.00000E+000	7.50000E-001	2.74702E-005	6	..........a	-327.65
	368	36.9	7.20153E-001	-9.43563E-010	0.00000E+000	7.20000E-001	3.21702E-005	6	..........a	-327.65
	371	37.2	6.90171E-001	-5.31501E-009	0.00000E+000	6.90000E-001	3.25035E-005	6	..........a	-327.65
	374	37.5	6.60182E-001	-8.28272E-009	0.00000E+000	6.60000E-001	3.39368E-005	6	..........a	-327.65
	377	37.8	6.30189E-001	-1.02350E-008	0.00000E+000	6.30000E-001	3.49702E-005	6	..........a	-327.65
	380	38.1	6.00185E-001	-1.17248E-008	0.00000E+000	6.00000E-001	2.96035E-005	6	..........a	-327.65
	383	38.4	5.70192E-001	-1.29796E-008	0.00000E+000	5.70000E-001	3.31035E-005	6	..........a	-327.65
	386	38.7	5.40194E-001	-1.39678E-008	0.00000E+000	5.40000E-001	3.34702E-005	6	..........a	-327.65
	389	39	5.10169E-001	-1.51624E-008	0.00000E+000	5.10000E-001	3.96702E-005	6	..........a	-327.65
	392	39.3	4.80167E-001	-1.58188E-008	0.00000E+000	4.80000E-001	3.60702E-005	6	..........a	-327.65
	395	39.6	4.50152E-001	-1.64245E-008	0.00000E+000	4.50000E-001	3.65368E-005	6	..........a	-327.65
	398	39.9	4.20194E-001	-1.69784E-008	0.00000E+000	4.20000E-001	4.10035E-005	6	..........a	-327.65
	401	40.2	3.90120E-001	-1.75143E-008	0.00000E+000	3.90000E-001	3.86368E-005	6	..........a	-327.65
	404	40.5	3.60096E-001	-1.78097E-008	0.00000E+000	3.60000E-001	3.64702E-005	6	..........a	-327.65
[...]
	1271	127.2	9.00808E-002	-2.41671E-008	0.00000E+000	9.00000E-002	3.00702E-005	6	..........a	-327.65
	1274	127.5	6.01505E-002	-2.52157E-008	0.00000E+000	6.00000E-002	3.10035E-005	6	..........a	-327.65
	1277	127.8	3.01243E-002	-2.63679E-008	0.00000E+000	3.00000E-002	3.36035E-005	6	..........a	-327.65
	1280	128.1	1.08545E-004	-2.75992E-008	0.00000E+000	7.45058E-009	2.90702E-005	6	..........a	-327.65
	1283	128.4	-3.00197E-002	-2.89541E-008	0.00000E+000	-3.00000E-002	3.43369E-005	6	..........a	-327.65
	1286	128.7	-5.99646E-002	-3.04876E-008	0.00000E+000	-6.00000E-002	2.94368E-005	6	..........a	-327.65
	1289	129	-9.00000E-002	-3.21965E-008	0.00000E+000	-9.00000E-002	3.40368E-005	6	..........a	-327.65
	1292	129.3	-1.19968E-001	-3.40777E-008	0.00000E+000	-1.20000E-001	3.38368E-005	6	..........a	-327.65
	1295	129.6	-1.50004E-001	-3.61458E-008	0.00000E+000	-1.50000E-001	3.02035E-005	6	..........a	-327.65
	1298	129.9	-1.79966E-001	-3.83674E-008	0.00000E+000	-1.80000E-001	2.69368E-005	6	..........a	-327.65
	1301	130.2	-2.10009E-001	-4.07362E-008	0.00000E+000	-2.10000E-001	2.96702E-005	6	..........a	-327.65
	1304	130.5	-2.39949E-001	-4.32054E-008	0.00000E+000	-2.40000E-001	3.68035E-005	6	..........a	-327.65
	1307	130.8	-2.69968E-001	-4.58143E-008	0.00000E+000	-2.70000E-001	4.13035E-005	6	..........a	-327.65
	1310	131.1	-2.99970E-001	-4.85811E-008	0.00000E+000	-3.00000E-001	3.64368E-005	6	..........a	-327.65
	1313	131.4	-3.30000E-001	-5.16267E-008	0.00000E+000	-3.30000E-001	3.73035E-005	6	..........a	-327.65
	1316	131.7	-3.59961E-001	-5.52025E-008	0.00000E+000	-3.60000E-001	3.67368E-005	6	..........a	-327.65
	1319	132	-3.90019E-001	-5.93246E-008	0.00000E+000	-3.90000E-001	3.68035E-005	6	..........a	-327.65
	1322	132.3	-4.20046E-001	-6.40428E-008	0.00000E+000	-4.20000E-001	3.74035E-005	6	..........a	-327.65
	1325	132.6	-4.50063E-001	-6.91210E-008	0.00000E+000	-4.50000E-001	3.92702E-005	6	..........a	-327.65
	1328	132.9	-4.80038E-001	-7.38405E-008	0.00000E+000	-4.80000E-001	4.22702E-005	6	..........a	-327.65
	1331	133.2	-5.10093E-001	-7.74975E-008	0.00000E+000	-5.10000E-001	3.77368E-005	6	..........a	-327.65
	1334	133.5	-5.40036E-001	-7.97184E-008	0.00000E+000	-5.40000E-001	3.82702E-005	6	..........a	-327.65
	1337	133.8	-5.70050E-001	-8.08038E-008	0.00000E+000	-5.70000E-001	3.96035E-005	6	..........a	-327.65
	1340	134.1	-6.00074E-001	-8.15946E-008	0.00000E+000	-6.00000E-001	1.13064E-003	6	..........a	-327.65
CURVE6	TABLE
	Pt	T	Vf	Im	Vu	Sig	Ach	IERange	Over	Temp
	#	s	V vs. Ref.	A	V	V	V	#	bits	deg C
	1341	134.2	-5.90119E-001	-4.84780E-008	0.00000E+000	-5.90000E-001	3.77702E-005	6	..........a	-327.65
	1342	134.3	-5.80071E-001	-3.90080E-008	0.00000E+000	-5.80000E-001	3.57035E-005	6	..........a	-327.65
	1343	134.4	-5.70089E-001	-3.24157E-008	0.00000E+000	-5.70000E-001	3.80369E-005	6	..........a	-327.65
	1344	134.5	-5.60099E-001	-2.75394E-008	0.00000E+000	-5.60000E-001	3.39368E-005	6	..........a	-327.65
	1345	134.6	-5.50159E-001	-2.38047E-008	0.00000E+000	-5.50000E-001	3.10702E-005	6	..........a	-327.65
	1346	134.7	-5.40089E-001	-2.09022E-008	0.00000E+000	-5.40000E-001	2.57368E-005	6	..........a	-327.65
	1347	134.8	-5.30104E-001	-1.86211E-008	0.00000E+000	-5.30000E-001	2.84035E-005	6	..........a	-327.65
	1348	134.9	-5.20058E-001	-1.67773E-008	0.00000E+000	-5.20000E-001	3.11035E-005	6	..........a	-327.65
	1349	135	-5.10142E-001	-1.52681E-008	0.00000E+000	-5.10000E-001	3.38702E-005	6	..........a	-327.65
	1350	135.1	-5.00100E-001	-1.39464E-008	0.00000E+000	-5.00000E-001	2.96368E-005	6	..........a	-327.65
	1351	135.2	-4.90127E-001	-1.27972E-008	0.00000E+000	-4.90000E-001	3.22702E-005	6	..........a	-327.65
	1352	135.3	-4.80095E-001	-1.17756E-008	0.00000E+000	-4.80000E-001	3.37702E-005	6	..........a	-327.65
	1353	135.4	-4.70131E-001	-1.08549E-008	0.00000E+000	-4.70000E-001	3.36035E-005	6	..........a	-327.65
	1354	135.5	-4.60109E-001	-9.98935E-009	0.00000E+000	-4.60000E-001	3.34035E-005	6	..........a	-327.65
	1355	135.6	-4.50120E-001	-9.12673E-009	0.00000E+000	-4.50000E-001	3.48702E-005	6	..........a	-327.65
	1356	135.7	-4.40099E-001	-8.30993E-009	0.00000E+000	-4.40000E-001	3.43369E-005	6	..........a	-327.65
	1357	135.8	-4.30117E-001	-7.48252E-009	0.00000E+000	-4.30000E-001	3.65035E-005	6	..........a	-327.65
	1358	135.9	-4.20102E-001	-6.71066E-009	0.00000E+000	-4.20000E-001	3.25702E-005	6	..........a	-327.65
	1359	136	-4.10122E-001	-5.89062E-009	0.00000E+000	-4.10000E-001	3.50702E-005	6	..........a	-327.65
	1360	136.1	-4.00038E-001	-5.09945E-009	0.00000E+000	-4.00000E-001	3.64702E-005	6	..........a	-327.65
	1361	136.2	-3.90081E-001	-4.25864E-009	0.00000E+000	-3.90000E-001	3.50702E-005	6	..........a	-327.65
	1362	136.3	-3.80018E-001	-3.42579E-009	0.00000E+000	-3.80000E-001	3.25369E-005	6	..........a	-327.65
	1363	136.4	-3.70092E-001	-2.58648E-009	0.00000E+000	-3.70000E-001	3.51035E-005	6	..........a	-327.65
	1364	136.5	-3.60021E-001	-1.69428E-009	0.00000E+000	-3.60000E-001	3.49368E-005	6	..........a	-327.65
	1365	136.6	-3.50050E-001	-8.39132E-010	0.00000E+000	-3.50000E-001	3.48702E-005	6	..........a	-327.65
	1366	136.7	-3.40031E-001	1.03176E-011	0.00000E+000	-3.40000E-001	3.48702E-005	6	..........a	-327.65
	1367	136.8	-3.30058E-001	8.38061E-010	0.00000E+000	-3.30000E-001	2.96035E-005	6	..........a	-327.65
	1368	136.9	-3.20013E-001	1.64770E-009	0.00000E+000	-3.20000E-001	3.43702E-005	6	..........a	-327.65
	1369	137	-3.10062E-001	2.47154E-009	0.00000E+000	-3.10000E-001	3.52702E-005	6	..........a	-327.65
	1370	137.1	-3.00029E-001	3.26381E-009	0.00000E+000	-3.00000E-001	3.52035E-005	6	..........a	-327.65
	1371	137.2	-2.90060E-001	4.01966E-009	0.00000E+000	-2.90000E-001	3.51702E-005	6	..........a	-327.65
	1372	137.3	-2.80036E-001	4.80026E-009	0.00000E+000	-2.80000E-001	3.40368E-005	6	..........a	-327.65
	1373	137.4	-2.70025E-001	5.55218E-009	0.00000E+000	-2.70000E-001	3.53035E-005	6	..........a	-327.65
	1374	137.5	-2.60012E-001	6.28246E-009	0.00000E+000	-2.60000E-001	2.82702E-005	6	..........a	-327.65
	1375	137.6	-2.50060E-001	7.00261E-009	0.00000E+000	-2.50000E-001	3.05702E-005	6	..........a	-327.65
	1376	137.7	-2.40013E-001	7.71305E-009	0.00000E+000	-2.40000E-001	3.73368E-005	6	..........a	-327.65
	1377	137.8	-2.30075E-001	8.43173E-009	0.00000E+000	-2.30000E-001	3.13035E-005	6	..........a	-327.65
	1378	137.9	-2.20011E-001	9.11369E-009	0.00000E+000	-2.20000E-001	3.45702E-005	6	..........a	-327.65
	1379	138	-2.10063E-001	9.81737E-009	0.00000E+000	-2.10000E-001	3.44702E-005	6	..........a	-327.65
	1380	138.1	-2.00038E-001	1.05114E-008	0.00000E+000	-2.00000E-001	2.98702E-005	6	..........a	-327.65
	1381	138.2	-1.90103E-001	1.11742E-008	0.00000E+000	-1.90000E-001	3.43369E-005	6	..........a	-327.65
	1382	138.3	-1.80021E-001	1.18533E-008	0.00000E+000	-1.80000E-001	2.77035E-005	6	..........a	-327.65
	1383	138.4	-1.70030E-001	1.25179E-008	0.00000E+000	-1.70000E-001	3.05035E-005	6	..........a	-327.65
	1384	138.5	-1.59990E-001	1.31832E-008	0.00000E+000	-1.60000E-001	2.62368E-005	6	..........a	-327.65
	1385	138.6	-1.50053E-001	1.38688E-008	0.00000E+000	-1.50000E-001	3.04368E-005	6	..........a	-327.65
	1386	138.7	-1.40036E-001	1.45427E-008	0.00000E+000	-1.40000E-001	3.18368E-005	6	..........a	-327.65
	1387	138.8	-1.30063E-001	1.52168E-008	0.00000E+000	-1.30000E-001	3.51035E-005	6	..........a	-327.65
	1388	138.9	-1.20017E-001	1.59157E-008	0.00000E+000	-1.20000E-001	3.23035E-005	6	..........a	-327.65
	1389	139	-1.10057E-001	1.65841E-008	0.00000E+000	-1.10000E-001	3.11368E-005	6	..........a	-327.65
	1390	139.1	-1.00039E-001	1.72596E-008	0.00000E+000	-1.00000E-001	2.75702E-005	6	..........a	-327.65
	1391	139.2	-9.00483E-002	1.79544E-008	0.00000E+000	-9.00000E-002	3.05368E-005	6	..........a	-327.65
	1392	139.3	-8.00283E-002	1.86803E-008	0.00000E+000	-8.00000E-002	2.50368E-005	6	..........a	-327.65
	1393	139.4	-7.00363E-002	1.93605E-008	0.00000E+000	-7.00000E-002	2.61368E-005	6	..........a	-327.65
	1394	139.5	-6.00221E-002	2.00849E-008	0.00000E+000	-6.00000E-002	2.92702E-005	6	..........a	-327.65
	1395	139.6	-5.00773E-002	2.08424E-008	0.00000E+000	-5.00000E-002	2.61368E-005	6	..........a	-327.65
	1396	139.7	-4.00326E-002	2.15890E-008	0.00000E+000	-4.00000E-002	2.95702E-005	6	..........a	-327.65
	1397	139.8	-3.00702E-002	2.23857E-008	0.00000E+000	-3.00000E-002	3.28035E-005	6	..........a	-327.65
	1398	139.9	-2.00052E-002	2.31715E-008	0.00000E+000	-2.00000E-002	3.25035E-005	6	..........a	-327.65
	1399	140	-1.00502E-002	2.39789E-008	0.00000E+000	-1.00000E-002	2.69035E-005	6	..........a	-327.65
	1400	140.1	5.26856E-005	2.48267E-008	0.00000E+000	7.45058E-009	3.22702E-005	6	..........a	-327.65